# E (eV)  dos(E)    pdos(E)
  -6.113  0.619E-04  0.618E-04
  -6.103  0.966E-04  0.963E-04
  -6.093  0.149E-03  0.149E-03
  -6.083  0.228E-03  0.227E-03
  -6.073  0.344E-03  0.343E-03
  -6.063  0.515E-03  0.513E-03
  -6.053  0.762E-03  0.759E-03
  -6.043  0.112E-02  0.111E-02
  -6.033  0.162E-02  0.161E-02
  -6.023  0.232E-02  0.231E-02
  -6.013  0.329E-02  0.328E-02
  -6.003  0.462E-02  0.461E-02
  -5.993  0.642E-02  0.640E-02
  -5.983  0.883E-02  0.881E-02
  -5.973  0.120E-01  0.120E-01
  -5.963  0.162E-01  0.162E-01
  -5.953  0.216E-01  0.215E-01
  -5.943  0.285E-01  0.284E-01
  -5.933  0.372E-01  0.371E-01
  -5.923  0.482E-01  0.480E-01
  -5.913  0.616E-01  0.614E-01
  -5.903  0.781E-01  0.778E-01
  -5.893  0.979E-01  0.976E-01
  -5.883  0.121E+00  0.121E+00
  -5.873  0.149E+00  0.149E+00
  -5.863  0.182E+00  0.181E+00
  -5.853  0.219E+00  0.218E+00
  -5.843  0.261E+00  0.260E+00
  -5.833  0.308E+00  0.307E+00
  -5.823  0.360E+00  0.359E+00
  -5.813  0.417E+00  0.416E+00
  -5.803  0.478E+00  0.477E+00
  -5.793  0.543E+00  0.542E+00
  -5.783  0.611E+00  0.609E+00
  -5.773  0.681E+00  0.679E+00
  -5.763  0.753E+00  0.751E+00
  -5.753  0.824E+00  0.822E+00
  -5.743  0.894E+00  0.892E+00
  -5.733  0.962E+00  0.959E+00
  -5.723  0.103E+01  0.102E+01
  -5.713  0.109E+01  0.108E+01
  -5.703  0.114E+01  0.114E+01
  -5.693  0.119E+01  0.118E+01
  -5.683  0.123E+01  0.122E+01
  -5.673  0.126E+01  0.125E+01
  -5.663  0.128E+01  0.128E+01
  -5.653  0.130E+01  0.129E+01
  -5.643  0.130E+01  0.130E+01
  -5.633  0.130E+01  0.130E+01
  -5.623  0.130E+01  0.129E+01
  -5.613  0.128E+01  0.128E+01
  -5.603  0.126E+01  0.126E+01
  -5.593  0.124E+01  0.124E+01
  -5.583  0.121E+01  0.121E+01
  -5.573  0.118E+01  0.117E+01
  -5.563  0.114E+01  0.114E+01
  -5.553  0.111E+01  0.111E+01
  -5.543  0.107E+01  0.107E+01
  -5.533  0.104E+01  0.103E+01
  -5.523  0.100E+01  0.999E+00
  -5.513  0.969E+00  0.966E+00
  -5.503  0.937E+00  0.934E+00
  -5.493  0.907E+00  0.904E+00
  -5.483  0.879E+00  0.877E+00
  -5.473  0.854E+00  0.852E+00
  -5.463  0.832E+00  0.829E+00
  -5.453  0.811E+00  0.809E+00
  -5.443  0.793E+00  0.791E+00
  -5.433  0.777E+00  0.774E+00
  -5.423  0.762E+00  0.759E+00
  -5.413  0.748E+00  0.746E+00
  -5.403  0.736E+00  0.733E+00
  -5.393  0.723E+00  0.721E+00
  -5.383  0.711E+00  0.709E+00
  -5.373  0.699E+00  0.697E+00
  -5.363  0.687E+00  0.685E+00
  -5.353  0.675E+00  0.673E+00
  -5.343  0.662E+00  0.660E+00
  -5.333  0.648E+00  0.646E+00
  -5.323  0.635E+00  0.633E+00
  -5.313  0.621E+00  0.619E+00
  -5.303  0.607E+00  0.605E+00
  -5.293  0.593E+00  0.591E+00
  -5.283  0.580E+00  0.578E+00
  -5.273  0.568E+00  0.566E+00
  -5.263  0.556E+00  0.554E+00
  -5.253  0.546E+00  0.544E+00
  -5.243  0.537E+00  0.535E+00
  -5.233  0.529E+00  0.527E+00
  -5.223  0.523E+00  0.522E+00
  -5.213  0.519E+00  0.517E+00
  -5.203  0.517E+00  0.515E+00
  -5.193  0.516E+00  0.514E+00
  -5.183  0.516E+00  0.514E+00
  -5.173  0.517E+00  0.516E+00
  -5.163  0.520E+00  0.518E+00
  -5.153  0.523E+00  0.521E+00
  -5.143  0.527E+00  0.525E+00
  -5.133  0.530E+00  0.528E+00
  -5.123  0.534E+00  0.532E+00
  -5.113  0.536E+00  0.534E+00
  -5.103  0.538E+00  0.536E+00
  -5.093  0.538E+00  0.536E+00
  -5.083  0.537E+00  0.535E+00
  -5.073  0.535E+00  0.533E+00
  -5.063  0.530E+00  0.528E+00
  -5.053  0.524E+00  0.522E+00
  -5.043  0.516E+00  0.514E+00
  -5.033  0.506E+00  0.504E+00
  -5.023  0.494E+00  0.492E+00
  -5.013  0.481E+00  0.480E+00
  -5.003  0.467E+00  0.466E+00
  -4.993  0.453E+00  0.451E+00
  -4.983  0.437E+00  0.436E+00
  -4.973  0.422E+00  0.421E+00
  -4.963  0.408E+00  0.406E+00
  -4.953  0.394E+00  0.392E+00
  -4.943  0.382E+00  0.380E+00
  -4.933  0.371E+00  0.369E+00
  -4.923  0.362E+00  0.361E+00
  -4.913  0.356E+00  0.355E+00
  -4.903  0.352E+00  0.351E+00
  -4.893  0.351E+00  0.350E+00
  -4.883  0.353E+00  0.351E+00
  -4.873  0.357E+00  0.356E+00
  -4.863  0.364E+00  0.363E+00
  -4.853  0.373E+00  0.372E+00
  -4.843  0.385E+00  0.383E+00
  -4.833  0.398E+00  0.396E+00
  -4.823  0.412E+00  0.410E+00
  -4.813  0.426E+00  0.425E+00
  -4.803  0.441E+00  0.440E+00
  -4.793  0.456E+00  0.454E+00
  -4.783  0.469E+00  0.468E+00
  -4.773  0.481E+00  0.480E+00
  -4.763  0.492E+00  0.490E+00
  -4.753  0.499E+00  0.498E+00
  -4.743  0.504E+00  0.503E+00
  -4.733  0.506E+00  0.504E+00
  -4.723  0.505E+00  0.503E+00
  -4.713  0.500E+00  0.498E+00
  -4.703  0.492E+00  0.490E+00
  -4.693  0.481E+00  0.479E+00
  -4.683  0.467E+00  0.465E+00
  -4.673  0.449E+00  0.448E+00
  -4.663  0.430E+00  0.428E+00
  -4.653  0.409E+00  0.407E+00
  -4.643  0.386E+00  0.384E+00
  -4.633  0.363E+00  0.361E+00
  -4.623  0.339E+00  0.338E+00
  -4.613  0.316E+00  0.315E+00
  -4.603  0.295E+00  0.293E+00
  -4.593  0.275E+00  0.274E+00
  -4.583  0.257E+00  0.256E+00
  -4.573  0.243E+00  0.242E+00
  -4.563  0.231E+00  0.230E+00
  -4.553  0.223E+00  0.222E+00
  -4.543  0.219E+00  0.218E+00
  -4.533  0.218E+00  0.218E+00
  -4.523  0.222E+00  0.221E+00
  -4.513  0.229E+00  0.228E+00
  -4.503  0.240E+00  0.239E+00
  -4.493  0.255E+00  0.254E+00
  -4.483  0.272E+00  0.271E+00
  -4.473  0.292E+00  0.291E+00
  -4.463  0.314E+00  0.313E+00
  -4.453  0.337E+00  0.336E+00
  -4.443  0.362E+00  0.360E+00
  -4.433  0.387E+00  0.385E+00
  -4.423  0.411E+00  0.409E+00
  -4.413  0.434E+00  0.433E+00
  -4.403  0.456E+00  0.454E+00
  -4.393  0.476E+00  0.474E+00
  -4.383  0.492E+00  0.490E+00
  -4.373  0.506E+00  0.503E+00
  -4.363  0.515E+00  0.513E+00
  -4.353  0.521E+00  0.518E+00
  -4.343  0.522E+00  0.520E+00
  -4.333  0.518E+00  0.516E+00
  -4.323  0.511E+00  0.509E+00
  -4.313  0.499E+00  0.497E+00
  -4.303  0.483E+00  0.481E+00
  -4.293  0.463E+00  0.462E+00
  -4.283  0.441E+00  0.439E+00
  -4.273  0.415E+00  0.414E+00
  -4.263  0.388E+00  0.387E+00
  -4.253  0.359E+00  0.358E+00
  -4.243  0.330E+00  0.329E+00
  -4.233  0.301E+00  0.300E+00
  -4.223  0.272E+00  0.271E+00
  -4.213  0.245E+00  0.244E+00
  -4.203  0.219E+00  0.218E+00
  -4.193  0.196E+00  0.195E+00
  -4.183  0.175E+00  0.174E+00
  -4.173  0.158E+00  0.157E+00
  -4.163  0.144E+00  0.143E+00
  -4.153  0.133E+00  0.133E+00
  -4.143  0.127E+00  0.126E+00
  -4.133  0.124E+00  0.124E+00
  -4.123  0.126E+00  0.125E+00
  -4.113  0.132E+00  0.131E+00
  -4.103  0.141E+00  0.141E+00
  -4.093  0.155E+00  0.154E+00
  -4.083  0.173E+00  0.172E+00
  -4.073  0.194E+00  0.193E+00
  -4.063  0.218E+00  0.217E+00
  -4.053  0.245E+00  0.244E+00
  -4.043  0.274E+00  0.273E+00
  -4.033  0.305E+00  0.304E+00
  -4.023  0.337E+00  0.336E+00
  -4.013  0.370E+00  0.368E+00
  -4.003  0.402E+00  0.400E+00
  -3.993  0.433E+00  0.431E+00
  -3.983  0.461E+00  0.459E+00
  -3.973  0.488E+00  0.486E+00
  -3.963  0.510E+00  0.508E+00
  -3.953  0.529E+00  0.527E+00
  -3.943  0.543E+00  0.540E+00
  -3.933  0.551E+00  0.549E+00
  -3.923  0.555E+00  0.553E+00
  -3.913  0.553E+00  0.550E+00
  -3.903  0.545E+00  0.543E+00
  -3.893  0.533E+00  0.531E+00
  -3.883  0.515E+00  0.513E+00
  -3.873  0.494E+00  0.491E+00
  -3.863  0.468E+00  0.466E+00
  -3.853  0.440E+00  0.438E+00
  -3.843  0.409E+00  0.407E+00
  -3.833  0.377E+00  0.375E+00
  -3.823  0.344E+00  0.342E+00
  -3.813  0.311E+00  0.310E+00
  -3.803  0.279E+00  0.278E+00
  -3.793  0.248E+00  0.247E+00
  -3.783  0.219E+00  0.218E+00
  -3.773  0.193E+00  0.192E+00
  -3.763  0.169E+00  0.169E+00
  -3.753  0.149E+00  0.148E+00
  -3.743  0.131E+00  0.131E+00
  -3.733  0.118E+00  0.117E+00
  -3.723  0.107E+00  0.107E+00
  -3.713  0.101E+00  0.101E+00
  -3.703  0.984E-01  0.980E-01
  -3.693  0.995E-01  0.991E-01
  -3.683  0.104E+00  0.104E+00
  -3.673  0.113E+00  0.113E+00
  -3.663  0.126E+00  0.125E+00
  -3.653  0.142E+00  0.141E+00
  -3.643  0.161E+00  0.160E+00
  -3.633  0.184E+00  0.183E+00
  -3.623  0.210E+00  0.209E+00
  -3.613  0.238E+00  0.237E+00
  -3.603  0.269E+00  0.268E+00
  -3.593  0.301E+00  0.300E+00
  -3.583  0.335E+00  0.334E+00
  -3.573  0.370E+00  0.368E+00
  -3.563  0.405E+00  0.403E+00
  -3.553  0.439E+00  0.437E+00
  -3.543  0.471E+00  0.469E+00
  -3.533  0.502E+00  0.500E+00
  -3.523  0.530E+00  0.528E+00
  -3.513  0.556E+00  0.553E+00
  -3.503  0.577E+00  0.575E+00
  -3.493  0.595E+00  0.592E+00
  -3.483  0.608E+00  0.605E+00
  -3.473  0.617E+00  0.614E+00
  -3.463  0.621E+00  0.619E+00
  -3.453  0.621E+00  0.619E+00
  -3.443  0.617E+00  0.615E+00
  -3.433  0.609E+00  0.607E+00
  -3.423  0.597E+00  0.595E+00
  -3.413  0.582E+00  0.580E+00
  -3.403  0.564E+00  0.562E+00
  -3.393  0.544E+00  0.542E+00
  -3.383  0.521E+00  0.519E+00
  -3.373  0.497E+00  0.495E+00
  -3.363  0.471E+00  0.470E+00
  -3.353  0.445E+00  0.443E+00
  -3.343  0.418E+00  0.417E+00
  -3.333  0.391E+00  0.390E+00
  -3.323  0.364E+00  0.363E+00
  -3.313  0.338E+00  0.336E+00
  -3.303  0.312E+00  0.311E+00
  -3.293  0.287E+00  0.286E+00
  -3.283  0.264E+00  0.263E+00
  -3.273  0.242E+00  0.241E+00
  -3.263  0.222E+00  0.221E+00
  -3.253  0.203E+00  0.203E+00
  -3.243  0.187E+00  0.187E+00
  -3.233  0.174E+00  0.173E+00
  -3.223  0.163E+00  0.162E+00
  -3.213  0.154E+00  0.154E+00
  -3.203  0.148E+00  0.147E+00
  -3.193  0.144E+00  0.144E+00
  -3.183  0.143E+00  0.143E+00
  -3.173  0.144E+00  0.144E+00
  -3.163  0.147E+00  0.147E+00
  -3.153  0.152E+00  0.151E+00
  -3.143  0.158E+00  0.157E+00
  -3.133  0.165E+00  0.164E+00
  -3.123  0.172E+00  0.172E+00
  -3.113  0.180E+00  0.180E+00
  -3.103  0.188E+00  0.187E+00
  -3.093  0.196E+00  0.195E+00
  -3.083  0.203E+00  0.202E+00
  -3.073  0.209E+00  0.208E+00
  -3.063  0.214E+00  0.213E+00
  -3.053  0.218E+00  0.217E+00
  -3.043  0.221E+00  0.220E+00
  -3.033  0.223E+00  0.222E+00
  -3.023  0.224E+00  0.223E+00
  -3.013  0.224E+00  0.223E+00
  -3.003  0.224E+00  0.223E+00
  -2.993  0.224E+00  0.223E+00
  -2.983  0.223E+00  0.222E+00
  -2.973  0.223E+00  0.222E+00
  -2.963  0.222E+00  0.221E+00
  -2.953  0.222E+00  0.221E+00
  -2.943  0.223E+00  0.222E+00
  -2.933  0.223E+00  0.222E+00
  -2.923  0.224E+00  0.223E+00
  -2.913  0.225E+00  0.224E+00
  -2.903  0.226E+00  0.225E+00
  -2.893  0.227E+00  0.226E+00
  -2.883  0.228E+00  0.226E+00
  -2.873  0.227E+00  0.226E+00
  -2.863  0.227E+00  0.225E+00
  -2.853  0.225E+00  0.224E+00
  -2.843  0.223E+00  0.222E+00
  -2.833  0.220E+00  0.219E+00
  -2.823  0.217E+00  0.216E+00
  -2.813  0.213E+00  0.212E+00
  -2.803  0.209E+00  0.208E+00
  -2.793  0.205E+00  0.203E+00
  -2.783  0.201E+00  0.200E+00
  -2.773  0.197E+00  0.196E+00
  -2.763  0.194E+00  0.193E+00
  -2.753  0.192E+00  0.191E+00
  -2.743  0.191E+00  0.190E+00
  -2.733  0.191E+00  0.190E+00
  -2.723  0.191E+00  0.190E+00
  -2.713  0.193E+00  0.192E+00
  -2.703  0.195E+00  0.194E+00
  -2.693  0.197E+00  0.197E+00
  -2.683  0.200E+00  0.199E+00
  -2.673  0.203E+00  0.202E+00
  -2.663  0.205E+00  0.204E+00
  -2.653  0.206E+00  0.206E+00
  -2.643  0.207E+00  0.206E+00
  -2.633  0.206E+00  0.205E+00
  -2.623  0.204E+00  0.203E+00
  -2.613  0.200E+00  0.200E+00
  -2.603  0.195E+00  0.194E+00
  -2.593  0.189E+00  0.188E+00
  -2.583  0.180E+00  0.180E+00
  -2.573  0.171E+00  0.171E+00
  -2.563  0.161E+00  0.160E+00
  -2.553  0.150E+00  0.149E+00
  -2.543  0.139E+00  0.138E+00
  -2.533  0.127E+00  0.126E+00
  -2.523  0.116E+00  0.115E+00
  -2.513  0.105E+00  0.104E+00
  -2.503  0.949E-01  0.945E-01
  -2.493  0.861E-01  0.857E-01
  -2.483  0.787E-01  0.784E-01
  -2.473  0.730E-01  0.727E-01
  -2.463  0.693E-01  0.690E-01
  -2.453  0.678E-01  0.675E-01
  -2.443  0.688E-01  0.685E-01
  -2.433  0.725E-01  0.721E-01
  -2.423  0.790E-01  0.787E-01
  -2.413  0.887E-01  0.883E-01
  -2.403  0.102E+00  0.101E+00
  -2.393  0.118E+00  0.118E+00
  -2.383  0.139E+00  0.138E+00
  -2.373  0.163E+00  0.162E+00
  -2.363  0.191E+00  0.190E+00
  -2.353  0.224E+00  0.223E+00
  -2.343  0.260E+00  0.259E+00
  -2.333  0.301E+00  0.299E+00
  -2.323  0.345E+00  0.344E+00
  -2.313  0.393E+00  0.392E+00
  -2.303  0.445E+00  0.443E+00
  -2.293  0.500E+00  0.497E+00
  -2.283  0.557E+00  0.554E+00
  -2.273  0.616E+00  0.613E+00
  -2.263  0.676E+00  0.673E+00
  -2.253  0.737E+00  0.733E+00
  -2.243  0.798E+00  0.794E+00
  -2.233  0.857E+00  0.853E+00
  -2.223  0.915E+00  0.911E+00
  -2.213  0.971E+00  0.966E+00
  -2.203  0.102E+01  0.102E+01
  -2.193  0.107E+01  0.107E+01
  -2.183  0.111E+01  0.111E+01
  -2.173  0.115E+01  0.115E+01
  -2.163  0.119E+01  0.118E+01
  -2.153  0.121E+01  0.121E+01
  -2.143  0.123E+01  0.123E+01
  -2.133  0.125E+01  0.124E+01
  -2.123  0.125E+01  0.125E+01
  -2.113  0.125E+01  0.125E+01
  -2.103  0.125E+01  0.124E+01
  -2.093  0.124E+01  0.123E+01
  -2.083  0.122E+01  0.122E+01
  -2.073  0.120E+01  0.120E+01
  -2.063  0.118E+01  0.117E+01
  -2.053  0.115E+01  0.115E+01
  -2.043  0.112E+01  0.112E+01
  -2.033  0.109E+01  0.108E+01
  -2.023  0.106E+01  0.105E+01
  -2.013  0.102E+01  0.102E+01
  -2.003  0.984E+00  0.979E+00
  -1.993  0.948E+00  0.943E+00
  -1.983  0.911E+00  0.907E+00
  -1.973  0.875E+00  0.871E+00
  -1.963  0.839E+00  0.835E+00
  -1.953  0.803E+00  0.799E+00
  -1.943  0.768E+00  0.764E+00
  -1.933  0.733E+00  0.730E+00
  -1.923  0.699E+00  0.696E+00
  -1.913  0.666E+00  0.663E+00
  -1.903  0.634E+00  0.630E+00
  -1.893  0.602E+00  0.599E+00
  -1.883  0.571E+00  0.569E+00
  -1.873  0.542E+00  0.539E+00
  -1.863  0.514E+00  0.511E+00
  -1.853  0.487E+00  0.485E+00
  -1.843  0.462E+00  0.460E+00
  -1.833  0.439E+00  0.436E+00
  -1.823  0.417E+00  0.415E+00
  -1.813  0.398E+00  0.395E+00
  -1.803  0.380E+00  0.378E+00
  -1.793  0.364E+00  0.362E+00
  -1.783  0.350E+00  0.348E+00
  -1.773  0.338E+00  0.336E+00
  -1.763  0.327E+00  0.325E+00
  -1.753  0.319E+00  0.317E+00
  -1.743  0.311E+00  0.310E+00
  -1.733  0.306E+00  0.304E+00
  -1.723  0.302E+00  0.300E+00
  -1.713  0.300E+00  0.298E+00
  -1.703  0.299E+00  0.297E+00
  -1.693  0.300E+00  0.298E+00
  -1.683  0.302E+00  0.300E+00
  -1.673  0.306E+00  0.304E+00
  -1.663  0.312E+00  0.310E+00
  -1.653  0.319E+00  0.317E+00
  -1.643  0.328E+00  0.326E+00
  -1.633  0.338E+00  0.336E+00
  -1.623  0.349E+00  0.346E+00
  -1.613  0.360E+00  0.358E+00
  -1.603  0.372E+00  0.369E+00
  -1.593  0.383E+00  0.381E+00
  -1.583  0.394E+00  0.391E+00
  -1.573  0.403E+00  0.400E+00
  -1.563  0.411E+00  0.408E+00
  -1.553  0.416E+00  0.413E+00
  -1.543  0.419E+00  0.416E+00
  -1.533  0.419E+00  0.417E+00
  -1.523  0.417E+00  0.414E+00
  -1.513  0.412E+00  0.409E+00
  -1.503  0.404E+00  0.402E+00
  -1.493  0.394E+00  0.392E+00
  -1.483  0.382E+00  0.380E+00
  -1.473  0.369E+00  0.367E+00
  -1.463  0.355E+00  0.352E+00
  -1.453  0.340E+00  0.338E+00
  -1.443  0.325E+00  0.323E+00
  -1.433  0.311E+00  0.309E+00
  -1.423  0.297E+00  0.296E+00
  -1.413  0.285E+00  0.283E+00
  -1.403  0.274E+00  0.273E+00
  -1.393  0.265E+00  0.264E+00
  -1.383  0.257E+00  0.256E+00
  -1.373  0.251E+00  0.249E+00
  -1.363  0.246E+00  0.244E+00
  -1.353  0.242E+00  0.240E+00
  -1.343  0.238E+00  0.237E+00
  -1.333  0.235E+00  0.234E+00
  -1.323  0.233E+00  0.231E+00
  -1.313  0.230E+00  0.228E+00
  -1.303  0.227E+00  0.225E+00
  -1.293  0.223E+00  0.222E+00
  -1.283  0.219E+00  0.218E+00
  -1.273  0.215E+00  0.214E+00
  -1.263  0.210E+00  0.209E+00
  -1.253  0.206E+00  0.205E+00
  -1.243  0.201E+00  0.200E+00
  -1.233  0.197E+00  0.196E+00
  -1.223  0.194E+00  0.193E+00
  -1.213  0.192E+00  0.191E+00
  -1.203  0.191E+00  0.189E+00
  -1.193  0.191E+00  0.189E+00
  -1.183  0.192E+00  0.191E+00
  -1.173  0.195E+00  0.194E+00
  -1.163  0.200E+00  0.199E+00
  -1.153  0.207E+00  0.206E+00
  -1.143  0.215E+00  0.214E+00
  -1.133  0.224E+00  0.223E+00
  -1.123  0.235E+00  0.234E+00
  -1.113  0.247E+00  0.245E+00
  -1.103  0.260E+00  0.258E+00
  -1.093  0.273E+00  0.271E+00
  -1.083  0.287E+00  0.286E+00
  -1.073  0.302E+00  0.300E+00
  -1.063  0.318E+00  0.316E+00
  -1.053  0.334E+00  0.332E+00
  -1.043  0.350E+00  0.348E+00
  -1.033  0.368E+00  0.366E+00
  -1.023  0.387E+00  0.384E+00
  -1.013  0.406E+00  0.404E+00
  -1.003  0.427E+00  0.424E+00
  -0.993  0.450E+00  0.447E+00
  -0.983  0.474E+00  0.471E+00
  -0.973  0.500E+00  0.497E+00
  -0.963  0.528E+00  0.524E+00
  -0.953  0.558E+00  0.554E+00
  -0.943  0.590E+00  0.586E+00
  -0.933  0.624E+00  0.620E+00
  -0.923  0.659E+00  0.655E+00
  -0.913  0.697E+00  0.692E+00
  -0.903  0.735E+00  0.731E+00
  -0.893  0.775E+00  0.770E+00
  -0.883  0.815E+00  0.810E+00
  -0.873  0.856E+00  0.851E+00
  -0.863  0.897E+00  0.891E+00
  -0.853  0.936E+00  0.930E+00
  -0.843  0.975E+00  0.969E+00
  -0.833  0.101E+01  0.101E+01
  -0.823  0.105E+01  0.104E+01
  -0.813  0.108E+01  0.108E+01
  -0.803  0.111E+01  0.111E+01
  -0.793  0.114E+01  0.114E+01
  -0.783  0.117E+01  0.116E+01
  -0.773  0.119E+01  0.119E+01
  -0.763  0.122E+01  0.121E+01
  -0.753  0.123E+01  0.122E+01
  -0.743  0.125E+01  0.124E+01
  -0.733  0.126E+01  0.125E+01
  -0.723  0.127E+01  0.126E+01
  -0.713  0.127E+01  0.126E+01
  -0.703  0.127E+01  0.126E+01
  -0.693  0.127E+01  0.126E+01
  -0.683  0.126E+01  0.125E+01
  -0.673  0.124E+01  0.124E+01
  -0.663  0.123E+01  0.122E+01
  -0.653  0.120E+01  0.120E+01
  -0.643  0.118E+01  0.117E+01
  -0.633  0.115E+01  0.114E+01
  -0.623  0.111E+01  0.110E+01
  -0.613  0.107E+01  0.107E+01
  -0.603  0.103E+01  0.102E+01
  -0.593  0.983E+00  0.977E+00
  -0.583  0.935E+00  0.929E+00
  -0.573  0.885E+00  0.879E+00
  -0.563  0.833E+00  0.827E+00
  -0.553  0.780E+00  0.775E+00
  -0.543  0.728E+00  0.723E+00
  -0.533  0.675E+00  0.671E+00
  -0.523  0.624E+00  0.620E+00
  -0.513  0.574E+00  0.570E+00
  -0.503  0.527E+00  0.523E+00
  -0.493  0.482E+00  0.478E+00
  -0.483  0.439E+00  0.436E+00
  -0.473  0.400E+00  0.397E+00
  -0.463  0.364E+00  0.361E+00
  -0.453  0.332E+00  0.329E+00
  -0.443  0.304E+00  0.301E+00
  -0.433  0.279E+00  0.277E+00
  -0.423  0.258E+00  0.256E+00
  -0.413  0.241E+00  0.239E+00
  -0.403  0.227E+00  0.225E+00
  -0.393  0.216E+00  0.215E+00
  -0.383  0.209E+00  0.207E+00
  -0.373  0.204E+00  0.203E+00
  -0.363  0.202E+00  0.200E+00
  -0.353  0.201E+00  0.199E+00
  -0.343  0.202E+00  0.200E+00
  -0.333  0.203E+00  0.202E+00
  -0.323  0.205E+00  0.204E+00
  -0.313  0.208E+00  0.206E+00
  -0.303  0.210E+00  0.208E+00
  -0.293  0.211E+00  0.210E+00
  -0.283  0.212E+00  0.211E+00
  -0.273  0.212E+00  0.210E+00
  -0.263  0.211E+00  0.209E+00
  -0.253  0.209E+00  0.207E+00
  -0.243  0.206E+00  0.205E+00
  -0.233  0.202E+00  0.201E+00
  -0.223  0.199E+00  0.197E+00
  -0.213  0.195E+00  0.193E+00
  -0.203  0.191E+00  0.190E+00
  -0.193  0.188E+00  0.187E+00
  -0.183  0.186E+00  0.184E+00
  -0.173  0.184E+00  0.183E+00
  -0.163  0.185E+00  0.183E+00
  -0.153  0.186E+00  0.185E+00
  -0.143  0.190E+00  0.188E+00
  -0.133  0.195E+00  0.193E+00
  -0.123  0.201E+00  0.200E+00
  -0.113  0.209E+00  0.208E+00
  -0.103  0.219E+00  0.217E+00
  -0.093  0.230E+00  0.228E+00
  -0.083  0.242E+00  0.240E+00
  -0.073  0.255E+00  0.253E+00
  -0.063  0.268E+00  0.266E+00
  -0.053  0.282E+00  0.280E+00
  -0.043  0.297E+00  0.294E+00
  -0.033  0.311E+00  0.309E+00
  -0.023  0.326E+00  0.323E+00
  -0.013  0.340E+00  0.337E+00
  -0.003  0.354E+00  0.351E+00
   0.007  0.368E+00  0.365E+00
   0.017  0.381E+00  0.377E+00
   0.027  0.393E+00  0.389E+00
   0.037  0.404E+00  0.400E+00
   0.047  0.413E+00  0.410E+00
   0.057  0.422E+00  0.418E+00
   0.067  0.428E+00  0.425E+00
   0.077  0.433E+00  0.429E+00
   0.087  0.435E+00  0.432E+00
   0.097  0.435E+00  0.432E+00
   0.107  0.432E+00  0.429E+00
   0.117  0.427E+00  0.423E+00
   0.127  0.418E+00  0.415E+00
   0.137  0.407E+00  0.404E+00
   0.147  0.393E+00  0.390E+00
   0.157  0.377E+00  0.374E+00
   0.167  0.358E+00  0.355E+00
   0.177  0.337E+00  0.335E+00
   0.187  0.315E+00  0.313E+00
   0.197  0.292E+00  0.289E+00
   0.207  0.268E+00  0.266E+00
   0.217  0.243E+00  0.241E+00
   0.227  0.219E+00  0.217E+00
   0.237  0.195E+00  0.194E+00
   0.247  0.173E+00  0.171E+00
   0.257  0.151E+00  0.150E+00
   0.267  0.131E+00  0.130E+00
   0.277  0.113E+00  0.112E+00
   0.287  0.957E-01  0.950E-01
   0.297  0.807E-01  0.801E-01
   0.307  0.675E-01  0.670E-01
   0.317  0.561E-01  0.557E-01
   0.327  0.463E-01  0.460E-01
   0.337  0.382E-01  0.380E-01
   0.347  0.317E-01  0.314E-01
   0.357  0.265E-01  0.263E-01
   0.367  0.227E-01  0.226E-01
   0.377  0.202E-01  0.201E-01
   0.387  0.189E-01  0.188E-01
   0.397  0.188E-01  0.186E-01
   0.407  0.197E-01  0.196E-01
   0.417  0.218E-01  0.217E-01
   0.427  0.250E-01  0.249E-01
   0.437  0.294E-01  0.292E-01
   0.447  0.349E-01  0.346E-01
   0.457  0.416E-01  0.413E-01
   0.467  0.495E-01  0.491E-01
   0.477  0.586E-01  0.582E-01
   0.487  0.689E-01  0.684E-01
   0.497  0.804E-01  0.798E-01
   0.507  0.930E-01  0.924E-01
   0.517  0.107E+00  0.106E+00
   0.527  0.121E+00  0.120E+00
   0.537  0.137E+00  0.136E+00
   0.547  0.152E+00  0.151E+00
   0.557  0.169E+00  0.168E+00
   0.567  0.185E+00  0.184E+00
   0.577  0.202E+00  0.200E+00
   0.587  0.218E+00  0.216E+00
   0.597  0.233E+00  0.232E+00
   0.607  0.248E+00  0.246E+00
   0.617  0.262E+00  0.260E+00
   0.627  0.275E+00  0.273E+00
   0.637  0.287E+00  0.285E+00
   0.647  0.297E+00  0.295E+00
   0.657  0.306E+00  0.304E+00
   0.667  0.314E+00  0.312E+00
   0.677  0.320E+00  0.318E+00
   0.687  0.325E+00  0.323E+00
   0.697  0.329E+00  0.327E+00
   0.707  0.332E+00  0.329E+00
   0.717  0.333E+00  0.331E+00
   0.727  0.334E+00  0.331E+00
   0.737  0.333E+00  0.331E+00
   0.747  0.332E+00  0.329E+00
   0.757  0.330E+00  0.328E+00
   0.767  0.328E+00  0.325E+00
   0.777  0.325E+00  0.322E+00
   0.787  0.322E+00  0.319E+00
   0.797  0.318E+00  0.316E+00
   0.807  0.315E+00  0.312E+00
   0.817  0.311E+00  0.308E+00
   0.827  0.306E+00  0.304E+00
   0.837  0.302E+00  0.299E+00
   0.847  0.297E+00  0.294E+00
   0.857  0.292E+00  0.289E+00
   0.867  0.286E+00  0.283E+00
   0.877  0.279E+00  0.277E+00
   0.887  0.272E+00  0.270E+00
   0.897  0.264E+00  0.262E+00
   0.907  0.256E+00  0.253E+00
   0.917  0.247E+00  0.244E+00
   0.927  0.237E+00  0.235E+00
   0.937  0.227E+00  0.225E+00
   0.947  0.217E+00  0.215E+00
   0.957  0.207E+00  0.205E+00
   0.967  0.197E+00  0.195E+00
   0.977  0.187E+00  0.185E+00
   0.987  0.178E+00  0.177E+00
   0.997  0.171E+00  0.169E+00
   1.007  0.164E+00  0.163E+00
   1.017  0.159E+00  0.158E+00
   1.027  0.156E+00  0.154E+00
   1.037  0.154E+00  0.152E+00
   1.047  0.153E+00  0.152E+00
   1.057  0.155E+00  0.153E+00
   1.067  0.157E+00  0.156E+00
   1.077  0.161E+00  0.160E+00
   1.087  0.166E+00  0.165E+00
   1.097  0.172E+00  0.170E+00
   1.107  0.178E+00  0.176E+00
   1.117  0.183E+00  0.182E+00
   1.127  0.188E+00  0.187E+00
   1.137  0.193E+00  0.191E+00
   1.147  0.196E+00  0.194E+00
   1.157  0.198E+00  0.196E+00
   1.167  0.198E+00  0.196E+00
   1.177  0.196E+00  0.195E+00
   1.187  0.193E+00  0.191E+00
   1.197  0.188E+00  0.186E+00
   1.207  0.181E+00  0.180E+00
   1.217  0.173E+00  0.171E+00
   1.227  0.163E+00  0.162E+00
   1.237  0.153E+00  0.152E+00
   1.247  0.142E+00  0.141E+00
   1.257  0.130E+00  0.129E+00
   1.267  0.118E+00  0.117E+00
   1.277  0.107E+00  0.106E+00
   1.287  0.956E-01  0.949E-01
   1.297  0.852E-01  0.845E-01
   1.307  0.758E-01  0.752E-01
   1.317  0.675E-01  0.669E-01
   1.327  0.604E-01  0.599E-01
   1.337  0.548E-01  0.544E-01
   1.347  0.508E-01  0.503E-01
   1.357  0.483E-01  0.478E-01
   1.367  0.474E-01  0.470E-01
   1.377  0.482E-01  0.477E-01
   1.387  0.506E-01  0.501E-01
   1.397  0.547E-01  0.542E-01
   1.407  0.603E-01  0.597E-01
   1.417  0.674E-01  0.668E-01
   1.427  0.760E-01  0.753E-01
   1.437  0.858E-01  0.850E-01
   1.447  0.968E-01  0.959E-01
   1.457  0.109E+00  0.108E+00
   1.467  0.122E+00  0.120E+00
   1.477  0.135E+00  0.134E+00
   1.487  0.149E+00  0.148E+00
   1.497  0.163E+00  0.162E+00
   1.507  0.178E+00  0.176E+00
   1.517  0.192E+00  0.190E+00
   1.527  0.207E+00  0.205E+00
   1.537  0.221E+00  0.219E+00
   1.547  0.236E+00  0.234E+00
   1.557  0.252E+00  0.250E+00
   1.567  0.268E+00  0.266E+00
   1.577  0.285E+00  0.283E+00
   1.587  0.304E+00  0.302E+00
   1.597  0.325E+00  0.323E+00
   1.607  0.349E+00  0.346E+00
   1.617  0.376E+00  0.373E+00
   1.627  0.407E+00  0.404E+00
   1.637  0.442E+00  0.438E+00
   1.647  0.481E+00  0.477E+00
   1.657  0.525E+00  0.521E+00
   1.667  0.573E+00  0.569E+00
   1.677  0.626E+00  0.621E+00
   1.687  0.683E+00  0.678E+00
   1.697  0.743E+00  0.738E+00
   1.707  0.806E+00  0.801E+00
   1.717  0.871E+00  0.865E+00
   1.727  0.936E+00  0.930E+00
   1.737  0.100E+01  0.993E+00
   1.747  0.106E+01  0.106E+01
   1.757  0.112E+01  0.111E+01
   1.767  0.118E+01  0.117E+01
   1.777  0.122E+01  0.121E+01
   1.787  0.126E+01  0.126E+01
   1.797  0.130E+01  0.129E+01
   1.807  0.132E+01  0.131E+01
   1.817  0.134E+01  0.133E+01
   1.827  0.134E+01  0.133E+01
   1.837  0.134E+01  0.133E+01
   1.847  0.133E+01  0.132E+01
   1.857  0.131E+01  0.130E+01
   1.867  0.128E+01  0.127E+01
   1.877  0.125E+01  0.124E+01
   1.887  0.121E+01  0.120E+01
   1.897  0.116E+01  0.116E+01
   1.907  0.112E+01  0.111E+01
   1.917  0.107E+01  0.106E+01
   1.927  0.102E+01  0.101E+01
   1.937  0.967E+00  0.961E+00
   1.947  0.916E+00  0.910E+00
   1.957  0.866E+00  0.861E+00
   1.967  0.818E+00  0.813E+00
   1.977  0.771E+00  0.766E+00
   1.987  0.726E+00  0.722E+00
   1.997  0.683E+00  0.679E+00
   2.007  0.643E+00  0.639E+00
   2.017  0.606E+00  0.602E+00
   2.027  0.570E+00  0.567E+00
   2.037  0.538E+00  0.535E+00
   2.047  0.508E+00  0.505E+00
   2.057  0.481E+00  0.478E+00
   2.067  0.456E+00  0.454E+00
   2.077  0.434E+00  0.432E+00
   2.087  0.415E+00  0.413E+00
   2.097  0.399E+00  0.396E+00
   2.107  0.385E+00  0.382E+00
   2.117  0.373E+00  0.371E+00
   2.127  0.364E+00  0.362E+00
   2.137  0.357E+00  0.355E+00
   2.147  0.353E+00  0.350E+00
   2.157  0.350E+00  0.348E+00
   2.167  0.350E+00  0.348E+00
   2.177  0.353E+00  0.351E+00
   2.187  0.358E+00  0.355E+00
   2.197  0.365E+00  0.362E+00
   2.207  0.374E+00  0.372E+00
   2.217  0.386E+00  0.383E+00
   2.227  0.400E+00  0.397E+00
   2.237  0.417E+00  0.414E+00
   2.247  0.436E+00  0.433E+00
   2.257  0.457E+00  0.454E+00
   2.267  0.480E+00  0.476E+00
   2.277  0.505E+00  0.501E+00
   2.287  0.531E+00  0.526E+00
   2.297  0.557E+00  0.553E+00
   2.307  0.584E+00  0.579E+00
   2.317  0.610E+00  0.604E+00
   2.327  0.634E+00  0.629E+00
   2.337  0.656E+00  0.651E+00
   2.347  0.676E+00  0.670E+00
   2.357  0.692E+00  0.686E+00
   2.367  0.704E+00  0.698E+00
   2.377  0.711E+00  0.705E+00
   2.387  0.713E+00  0.707E+00
   2.397  0.710E+00  0.703E+00
   2.407  0.701E+00  0.695E+00
   2.417  0.687E+00  0.681E+00
   2.427  0.668E+00  0.662E+00
   2.437  0.644E+00  0.638E+00
   2.447  0.616E+00  0.611E+00
   2.457  0.585E+00  0.580E+00
   2.467  0.551E+00  0.546E+00
   2.477  0.516E+00  0.511E+00
   2.487  0.480E+00  0.475E+00
   2.497  0.444E+00  0.440E+00
   2.507  0.409E+00  0.406E+00
   2.517  0.377E+00  0.374E+00
   2.527  0.347E+00  0.344E+00
   2.537  0.322E+00  0.319E+00
   2.547  0.300E+00  0.297E+00
   2.557  0.283E+00  0.281E+00
   2.567  0.271E+00  0.269E+00
   2.577  0.265E+00  0.263E+00
   2.587  0.264E+00  0.262E+00
   2.597  0.268E+00  0.266E+00
   2.607  0.277E+00  0.275E+00
   2.617  0.291E+00  0.289E+00
   2.627  0.309E+00  0.307E+00
   2.637  0.331E+00  0.329E+00
   2.647  0.357E+00  0.354E+00
   2.657  0.385E+00  0.382E+00
   2.667  0.416E+00  0.413E+00
   2.677  0.448E+00  0.445E+00
   2.687  0.481E+00  0.478E+00
   2.697  0.515E+00  0.511E+00
   2.707  0.549E+00  0.545E+00
   2.717  0.582E+00  0.578E+00
   2.727  0.615E+00  0.610E+00
   2.737  0.647E+00  0.642E+00
   2.747  0.677E+00  0.672E+00
   2.757  0.706E+00  0.700E+00
   2.767  0.733E+00  0.727E+00
   2.777  0.758E+00  0.752E+00
   2.787  0.781E+00  0.775E+00
   2.797  0.802E+00  0.795E+00
   2.807  0.820E+00  0.814E+00
   2.817  0.836E+00  0.830E+00
   2.827  0.850E+00  0.843E+00
   2.837  0.861E+00  0.854E+00
   2.847  0.869E+00  0.862E+00
   2.857  0.875E+00  0.867E+00
   2.867  0.878E+00  0.871E+00
   2.877  0.878E+00  0.871E+00
   2.887  0.877E+00  0.870E+00
   2.897  0.874E+00  0.867E+00
   2.907  0.869E+00  0.862E+00
   2.917  0.864E+00  0.857E+00
   2.927  0.858E+00  0.852E+00
   2.937  0.853E+00  0.847E+00
   2.947  0.849E+00  0.843E+00
   2.957  0.847E+00  0.840E+00
   2.967  0.847E+00  0.840E+00
   2.977  0.850E+00  0.843E+00
   2.987  0.856E+00  0.849E+00
   2.997  0.865E+00  0.858E+00
   3.007  0.878E+00  0.871E+00
   3.017  0.895E+00  0.888E+00
   3.027  0.915E+00  0.908E+00
   3.037  0.938E+00  0.930E+00
   3.047  0.963E+00  0.955E+00
   3.057  0.989E+00  0.981E+00
   3.067  0.102E+01  0.101E+01
   3.077  0.104E+01  0.103E+01
   3.087  0.107E+01  0.106E+01
   3.097  0.109E+01  0.108E+01
   3.107  0.111E+01  0.111E+01
   3.117  0.113E+01  0.112E+01
   3.127  0.115E+01  0.114E+01
   3.137  0.116E+01  0.115E+01
   3.147  0.116E+01  0.115E+01
   3.157  0.116E+01  0.115E+01
   3.167  0.116E+01  0.115E+01
   3.177  0.116E+01  0.114E+01
   3.187  0.115E+01  0.114E+01
   3.197  0.114E+01  0.113E+01
   3.207  0.112E+01  0.111E+01
   3.217  0.111E+01  0.110E+01
   3.227  0.110E+01  0.109E+01
   3.237  0.109E+01  0.108E+01
   3.247  0.109E+01  0.108E+01
   3.257  0.108E+01  0.108E+01
   3.267  0.108E+01  0.108E+01
   3.277  0.109E+01  0.108E+01
   3.287  0.110E+01  0.109E+01
   3.297  0.111E+01  0.110E+01
   3.307  0.113E+01  0.112E+01
   3.317  0.115E+01  0.114E+01
   3.327  0.117E+01  0.116E+01
   3.337  0.120E+01  0.119E+01
   3.347  0.122E+01  0.122E+01
   3.357  0.125E+01  0.124E+01
   3.367  0.128E+01  0.127E+01
   3.377  0.130E+01  0.129E+01
   3.387  0.132E+01  0.131E+01
   3.397  0.134E+01  0.133E+01
   3.407  0.135E+01  0.135E+01
   3.417  0.136E+01  0.135E+01
   3.427  0.136E+01  0.136E+01
   3.437  0.136E+01  0.135E+01
   3.447  0.135E+01  0.135E+01
   3.457  0.134E+01  0.133E+01
   3.467  0.132E+01  0.131E+01
   3.477  0.129E+01  0.129E+01
   3.487  0.126E+01  0.126E+01
   3.497  0.123E+01  0.122E+01
   3.507  0.120E+01  0.119E+01
   3.517  0.116E+01  0.115E+01
   3.527  0.112E+01  0.112E+01
   3.537  0.109E+01  0.108E+01
   3.547  0.105E+01  0.105E+01
   3.557  0.102E+01  0.101E+01
   3.567  0.991E+00  0.986E+00
   3.577  0.967E+00  0.962E+00
   3.587  0.948E+00  0.943E+00
   3.597  0.934E+00  0.928E+00
   3.607  0.924E+00  0.919E+00
   3.617  0.920E+00  0.915E+00
   3.627  0.921E+00  0.915E+00
   3.637  0.926E+00  0.920E+00
   3.647  0.934E+00  0.928E+00
   3.657  0.946E+00  0.940E+00
   3.667  0.960E+00  0.954E+00
   3.677  0.977E+00  0.970E+00
   3.687  0.994E+00  0.987E+00
   3.697  0.101E+01  0.100E+01
   3.707  0.103E+01  0.102E+01
   3.717  0.105E+01  0.104E+01
   3.727  0.106E+01  0.105E+01
   3.737  0.108E+01  0.107E+01
   3.747  0.109E+01  0.109E+01
   3.757  0.111E+01  0.110E+01
   3.767  0.112E+01  0.111E+01
   3.777  0.113E+01  0.112E+01
   3.787  0.115E+01  0.114E+01
   3.797  0.116E+01  0.115E+01
   3.807  0.117E+01  0.116E+01
   3.817  0.118E+01  0.116E+01
   3.827  0.118E+01  0.117E+01
   3.837  0.119E+01  0.118E+01
   3.847  0.120E+01  0.118E+01
   3.857  0.120E+01  0.119E+01
   3.867  0.120E+01  0.119E+01
   3.877  0.120E+01  0.119E+01
   3.887  0.119E+01  0.118E+01
   3.897  0.119E+01  0.117E+01
   3.907  0.117E+01  0.116E+01
   3.917  0.116E+01  0.115E+01
   3.927  0.114E+01  0.113E+01
   3.937  0.112E+01  0.111E+01
   3.947  0.109E+01  0.108E+01
   3.957  0.106E+01  0.105E+01
   3.967  0.103E+01  0.102E+01
   3.977  0.100E+01  0.989E+00
   3.987  0.966E+00  0.955E+00
   3.997  0.931E+00  0.921E+00
   4.007  0.896E+00  0.886E+00
   4.017  0.861E+00  0.852E+00
   4.027  0.828E+00  0.819E+00
   4.037  0.796E+00  0.788E+00
   4.047  0.767E+00  0.759E+00
   4.057  0.741E+00  0.734E+00
   4.067  0.719E+00  0.712E+00
   4.077  0.701E+00  0.693E+00
   4.087  0.687E+00  0.680E+00
   4.097  0.677E+00  0.670E+00
   4.107  0.671E+00  0.665E+00
   4.117  0.670E+00  0.664E+00
   4.127  0.673E+00  0.667E+00
   4.137  0.680E+00  0.673E+00
   4.147  0.689E+00  0.682E+00
   4.157  0.701E+00  0.694E+00
   4.167  0.714E+00  0.707E+00
   4.177  0.727E+00  0.720E+00
   4.187  0.740E+00  0.733E+00
   4.197  0.752E+00  0.745E+00
   4.207  0.762E+00  0.754E+00
   4.217  0.768E+00  0.761E+00
   4.227  0.770E+00  0.763E+00
   4.237  0.769E+00  0.761E+00
   4.247  0.762E+00  0.755E+00
   4.257  0.751E+00  0.744E+00
   4.267  0.734E+00  0.728E+00
   4.277  0.714E+00  0.707E+00
   4.287  0.689E+00  0.682E+00
   4.297  0.660E+00  0.654E+00
   4.307  0.629E+00  0.623E+00
   4.317  0.596E+00  0.590E+00
   4.327  0.562E+00  0.557E+00
   4.337  0.528E+00  0.523E+00
   4.347  0.495E+00  0.491E+00
   4.357  0.465E+00  0.460E+00
   4.367  0.437E+00  0.433E+00
   4.377  0.414E+00  0.410E+00
   4.387  0.396E+00  0.392E+00
   4.397  0.383E+00  0.379E+00
   4.407  0.376E+00  0.372E+00
   4.417  0.375E+00  0.371E+00
   4.427  0.381E+00  0.377E+00
   4.437  0.392E+00  0.388E+00
   4.447  0.410E+00  0.405E+00
   4.457  0.433E+00  0.428E+00
   4.467  0.460E+00  0.455E+00
   4.477  0.492E+00  0.486E+00
   4.487  0.526E+00  0.520E+00
   4.497  0.562E+00  0.555E+00
   4.507  0.598E+00  0.591E+00
   4.517  0.634E+00  0.626E+00
   4.527  0.667E+00  0.659E+00
   4.537  0.698E+00  0.690E+00
   4.547  0.725E+00  0.716E+00
   4.557  0.747E+00  0.738E+00
   4.567  0.764E+00  0.755E+00
   4.577  0.775E+00  0.766E+00
   4.587  0.781E+00  0.771E+00
   4.597  0.781E+00  0.771E+00
   4.607  0.776E+00  0.765E+00
   4.617  0.766E+00  0.756E+00
   4.627  0.752E+00  0.742E+00
   4.637  0.736E+00  0.726E+00
   4.647  0.718E+00  0.708E+00
   4.657  0.699E+00  0.689E+00
   4.667  0.681E+00  0.671E+00
   4.677  0.665E+00  0.655E+00
   4.687  0.651E+00  0.640E+00
   4.697  0.640E+00  0.630E+00
   4.707  0.633E+00  0.622E+00
   4.717  0.630E+00  0.620E+00
   4.727  0.632E+00  0.621E+00
   4.737  0.638E+00  0.627E+00
   4.747  0.649E+00  0.638E+00
   4.757  0.664E+00  0.652E+00
   4.767  0.682E+00  0.670E+00
   4.777  0.703E+00  0.691E+00
   4.787  0.727E+00  0.715E+00
   4.797  0.753E+00  0.740E+00
   4.807  0.779E+00  0.766E+00
   4.817  0.807E+00  0.793E+00
   4.827  0.833E+00  0.820E+00
   4.837  0.860E+00  0.845E+00
   4.847  0.885E+00  0.870E+00
   4.857  0.908E+00  0.893E+00
   4.867  0.929E+00  0.914E+00
   4.877  0.948E+00  0.933E+00
   4.887  0.965E+00  0.950E+00
   4.897  0.980E+00  0.964E+00
   4.907  0.992E+00  0.976E+00
   4.917  0.100E+01  0.987E+00
   4.927  0.101E+01  0.995E+00
   4.937  0.102E+01  0.100E+01
   4.947  0.103E+01  0.101E+01
   4.957  0.103E+01  0.102E+01
   4.967  0.104E+01  0.102E+01
   4.977  0.105E+01  0.103E+01
   4.987  0.106E+01  0.104E+01
   4.997  0.107E+01  0.106E+01
   5.007  0.109E+01  0.107E+01
   5.017  0.111E+01  0.109E+01
   5.027  0.113E+01  0.111E+01
   5.037  0.115E+01  0.114E+01
   5.047  0.118E+01  0.117E+01
   5.057  0.122E+01  0.120E+01
   5.067  0.125E+01  0.123E+01
   5.077  0.128E+01  0.127E+01
   5.087  0.132E+01  0.130E+01
   5.097  0.135E+01  0.133E+01
   5.107  0.138E+01  0.137E+01
   5.117  0.141E+01  0.140E+01
   5.127  0.144E+01  0.142E+01
   5.137  0.146E+01  0.144E+01
   5.147  0.148E+01  0.146E+01
   5.157  0.149E+01  0.147E+01
   5.167  0.150E+01  0.148E+01
   5.177  0.150E+01  0.148E+01
   5.187  0.150E+01  0.148E+01
   5.197  0.150E+01  0.148E+01
   5.207  0.150E+01  0.148E+01
   5.217  0.149E+01  0.147E+01
   5.227  0.149E+01  0.147E+01
   5.237  0.149E+01  0.147E+01
   5.247  0.149E+01  0.147E+01
   5.257  0.149E+01  0.147E+01
   5.267  0.149E+01  0.147E+01
   5.277  0.150E+01  0.148E+01
   5.287  0.152E+01  0.149E+01
   5.297  0.153E+01  0.151E+01
   5.307  0.155E+01  0.152E+01
   5.317  0.157E+01  0.154E+01
   5.327  0.159E+01  0.156E+01
   5.337  0.161E+01  0.158E+01
   5.347  0.162E+01  0.159E+01
   5.357  0.164E+01  0.161E+01
   5.367  0.165E+01  0.162E+01
   5.377  0.165E+01  0.162E+01
   5.387  0.166E+01  0.163E+01
   5.397  0.165E+01  0.162E+01
   5.407  0.164E+01  0.161E+01
   5.417  0.162E+01  0.159E+01
   5.427  0.159E+01  0.156E+01
   5.437  0.156E+01  0.153E+01
   5.447  0.152E+01  0.150E+01
   5.457  0.148E+01  0.145E+01
   5.467  0.143E+01  0.141E+01
   5.477  0.138E+01  0.136E+01
   5.487  0.133E+01  0.130E+01
   5.497  0.128E+01  0.125E+01
   5.507  0.122E+01  0.120E+01
   5.517  0.117E+01  0.115E+01
   5.527  0.112E+01  0.110E+01
   5.537  0.107E+01  0.105E+01
   5.547  0.102E+01  0.100E+01
   5.557  0.985E+00  0.966E+00
   5.567  0.950E+00  0.931E+00
   5.577  0.921E+00  0.902E+00
   5.587  0.896E+00  0.879E+00
   5.597  0.878E+00  0.860E+00
   5.607  0.864E+00  0.847E+00
   5.617  0.856E+00  0.839E+00
   5.627  0.853E+00  0.836E+00
   5.637  0.854E+00  0.837E+00
   5.647  0.860E+00  0.842E+00
   5.657  0.869E+00  0.851E+00
   5.667  0.883E+00  0.864E+00
   5.677  0.900E+00  0.881E+00
   5.687  0.920E+00  0.901E+00
   5.697  0.943E+00  0.923E+00
   5.707  0.970E+00  0.949E+00
   5.717  0.100E+01  0.978E+00
   5.727  0.103E+01  0.101E+01
   5.737  0.107E+01  0.104E+01
   5.747  0.110E+01  0.108E+01
   5.757  0.114E+01  0.112E+01
   5.767  0.118E+01  0.115E+01
   5.777  0.122E+01  0.119E+01
   5.787  0.126E+01  0.123E+01
   5.797  0.129E+01  0.126E+01
   5.807  0.133E+01  0.130E+01
   5.817  0.136E+01  0.132E+01
   5.827  0.138E+01  0.135E+01
   5.837  0.140E+01  0.137E+01
   5.847  0.142E+01  0.138E+01
   5.857  0.143E+01  0.139E+01
   5.867  0.143E+01  0.139E+01
   5.877  0.142E+01  0.139E+01
   5.887  0.142E+01  0.138E+01
   5.897  0.140E+01  0.137E+01
   5.907  0.138E+01  0.135E+01
   5.917  0.136E+01  0.133E+01
   5.927  0.134E+01  0.131E+01
   5.937  0.132E+01  0.129E+01
   5.947  0.130E+01  0.127E+01
   5.957  0.129E+01  0.125E+01
   5.967  0.128E+01  0.124E+01
   5.977  0.127E+01  0.124E+01
   5.987  0.127E+01  0.124E+01
   5.997  0.128E+01  0.124E+01
   6.007  0.129E+01  0.125E+01
   6.017  0.131E+01  0.127E+01
   6.027  0.133E+01  0.129E+01
   6.037  0.136E+01  0.132E+01
   6.047  0.140E+01  0.136E+01
   6.057  0.144E+01  0.140E+01
   6.067  0.148E+01  0.144E+01
   6.077  0.153E+01  0.148E+01
   6.087  0.157E+01  0.152E+01
   6.097  0.162E+01  0.157E+01
   6.107  0.167E+01  0.162E+01
   6.117  0.172E+01  0.166E+01
   6.127  0.177E+01  0.171E+01
   6.137  0.181E+01  0.176E+01
   6.147  0.186E+01  0.180E+01
   6.157  0.191E+01  0.185E+01
   6.167  0.196E+01  0.189E+01
   6.177  0.200E+01  0.194E+01
   6.187  0.205E+01  0.198E+01
   6.197  0.209E+01  0.202E+01
   6.207  0.214E+01  0.207E+01
   6.217  0.218E+01  0.211E+01
   6.227  0.222E+01  0.214E+01
   6.237  0.225E+01  0.218E+01
   6.247  0.228E+01  0.221E+01
   6.257  0.231E+01  0.223E+01
   6.267  0.233E+01  0.225E+01
   6.277  0.234E+01  0.226E+01
   6.287  0.233E+01  0.225E+01
   6.297  0.232E+01  0.224E+01
   6.307  0.230E+01  0.222E+01
   6.317  0.226E+01  0.218E+01
   6.327  0.221E+01  0.213E+01
   6.337  0.215E+01  0.207E+01
   6.347  0.207E+01  0.200E+01
   6.357  0.199E+01  0.192E+01
   6.367  0.189E+01  0.182E+01
   6.377  0.178E+01  0.172E+01
   6.387  0.167E+01  0.161E+01
   6.397  0.155E+01  0.150E+01
   6.407  0.143E+01  0.138E+01
   6.417  0.131E+01  0.126E+01
   6.427  0.119E+01  0.115E+01
   6.437  0.108E+01  0.104E+01
   6.447  0.972E+00  0.933E+00
   6.457  0.872E+00  0.835E+00
   6.467  0.780E+00  0.746E+00
   6.477  0.699E+00  0.667E+00
   6.487  0.630E+00  0.598E+00
   6.497  0.572E+00  0.541E+00
   6.507  0.526E+00  0.494E+00
   6.517  0.492E+00  0.459E+00
   6.527  0.469E+00  0.435E+00
   6.537  0.457E+00  0.420E+00
   6.547  0.455E+00  0.416E+00
   6.557  0.462E+00  0.419E+00
   6.567  0.477E+00  0.430E+00
   6.577  0.499E+00  0.448E+00
   6.587  0.527E+00  0.471E+00
   6.597  0.559E+00  0.498E+00
   6.607  0.594E+00  0.528E+00
   6.617  0.631E+00  0.559E+00
   6.627  0.670E+00  0.592E+00
   6.637  0.708E+00  0.625E+00
   6.647  0.745E+00  0.657E+00
   6.657  0.781E+00  0.687E+00
   6.667  0.813E+00  0.715E+00
   6.677  0.843E+00  0.741E+00
   6.687  0.870E+00  0.763E+00
   6.697  0.893E+00  0.782E+00
   6.707  0.912E+00  0.798E+00
   6.717  0.927E+00  0.810E+00
   6.727  0.938E+00  0.819E+00
   6.737  0.945E+00  0.824E+00
   6.747  0.950E+00  0.827E+00
   6.757  0.951E+00  0.827E+00
   6.767  0.949E+00  0.825E+00
   6.777  0.946E+00  0.821E+00
   6.787  0.941E+00  0.816E+00
   6.797  0.934E+00  0.809E+00
   6.807  0.926E+00  0.801E+00
   6.817  0.918E+00  0.793E+00
   6.827  0.910E+00  0.785E+00
   6.837  0.901E+00  0.776E+00
   6.847  0.893E+00  0.768E+00
   6.857  0.884E+00  0.760E+00
   6.867  0.877E+00  0.751E+00
   6.877  0.869E+00  0.743E+00
   6.887  0.861E+00  0.735E+00
   6.897  0.853E+00  0.727E+00
   6.907  0.845E+00  0.719E+00
   6.917  0.837E+00  0.710E+00
   6.927  0.827E+00  0.701E+00
   6.937  0.817E+00  0.691E+00
   6.947  0.806E+00  0.681E+00
   6.957  0.793E+00  0.669E+00
   6.967  0.778E+00  0.656E+00
   6.977  0.762E+00  0.643E+00
   6.987  0.744E+00  0.628E+00
   6.997  0.725E+00  0.612E+00
   7.007  0.704E+00  0.594E+00
   7.017  0.681E+00  0.576E+00
   7.027  0.658E+00  0.557E+00
   7.037  0.633E+00  0.538E+00
   7.047  0.609E+00  0.518E+00
   7.057  0.584E+00  0.498E+00
   7.067  0.560E+00  0.479E+00
   7.077  0.537E+00  0.460E+00
   7.087  0.515E+00  0.442E+00
   7.097  0.495E+00  0.426E+00
   7.107  0.478E+00  0.411E+00
   7.117  0.464E+00  0.399E+00
   7.127  0.453E+00  0.389E+00
   7.137  0.446E+00  0.382E+00
   7.147  0.443E+00  0.378E+00
   7.157  0.444E+00  0.378E+00
   7.167  0.450E+00  0.381E+00
   7.177  0.460E+00  0.387E+00
   7.187  0.474E+00  0.397E+00
   7.197  0.492E+00  0.410E+00
   7.207  0.513E+00  0.426E+00
   7.217  0.536E+00  0.444E+00
   7.227  0.562E+00  0.464E+00
   7.237  0.589E+00  0.486E+00
   7.247  0.617E+00  0.508E+00
   7.257  0.644E+00  0.530E+00
   7.267  0.671E+00  0.552E+00
   7.277  0.695E+00  0.572E+00
   7.287  0.717E+00  0.591E+00
   7.297  0.736E+00  0.608E+00
   7.307  0.751E+00  0.622E+00
   7.317  0.763E+00  0.632E+00
   7.327  0.771E+00  0.640E+00
   7.337  0.775E+00  0.645E+00
   7.347  0.776E+00  0.647E+00
   7.357  0.773E+00  0.646E+00
   7.367  0.768E+00  0.642E+00
   7.377  0.760E+00  0.636E+00
   7.387  0.750E+00  0.629E+00
   7.397  0.740E+00  0.621E+00
   7.407  0.729E+00  0.612E+00
   7.417  0.718E+00  0.602E+00
   7.427  0.708E+00  0.594E+00
   7.437  0.699E+00  0.585E+00
   7.447  0.691E+00  0.579E+00
   7.457  0.686E+00  0.573E+00
   7.467  0.683E+00  0.570E+00
   7.477  0.682E+00  0.569E+00
   7.487  0.684E+00  0.570E+00
   7.497  0.690E+00  0.574E+00
   7.507  0.698E+00  0.581E+00
   7.517  0.710E+00  0.591E+00
   7.527  0.726E+00  0.604E+00
   7.537  0.745E+00  0.620E+00
   7.547  0.767E+00  0.640E+00
   7.557  0.793E+00  0.663E+00
   7.567  0.823E+00  0.689E+00
   7.577  0.856E+00  0.718E+00
   7.587  0.892E+00  0.750E+00
   7.597  0.930E+00  0.784E+00
   7.607  0.970E+00  0.820E+00
   7.617  0.101E+01  0.856E+00
   7.627  0.105E+01  0.893E+00
   7.637  0.109E+01  0.929E+00
   7.647  0.113E+01  0.964E+00
   7.657  0.117E+01  0.996E+00
   7.667  0.120E+01  0.103E+01
   7.677  0.123E+01  0.105E+01
   7.687  0.125E+01  0.107E+01
   7.697  0.126E+01  0.108E+01
   7.707  0.127E+01  0.109E+01
   7.717  0.127E+01  0.109E+01
   7.727  0.127E+01  0.109E+01
   7.737  0.125E+01  0.108E+01
   7.747  0.123E+01  0.106E+01
   7.757  0.121E+01  0.104E+01
   7.767  0.118E+01  0.102E+01
   7.777  0.114E+01  0.987E+00
   7.787  0.110E+01  0.954E+00
   7.797  0.106E+01  0.920E+00
   7.807  0.102E+01  0.884E+00
   7.817  0.973E+00  0.847E+00
   7.827  0.931E+00  0.812E+00
   7.837  0.890E+00  0.777E+00
   7.847  0.851E+00  0.745E+00
   7.857  0.816E+00  0.715E+00
   7.867  0.784E+00  0.688E+00
   7.877  0.756E+00  0.665E+00
   7.887  0.733E+00  0.646E+00
   7.897  0.714E+00  0.630E+00
   7.907  0.700E+00  0.619E+00
   7.917  0.691E+00  0.612E+00
   7.927  0.687E+00  0.608E+00
   7.937  0.687E+00  0.609E+00
   7.947  0.691E+00  0.613E+00
   7.957  0.699E+00  0.620E+00
   7.967  0.709E+00  0.630E+00
   7.977  0.723E+00  0.641E+00
   7.987  0.738E+00  0.654E+00
   7.997  0.755E+00  0.669E+00
   8.007  0.772E+00  0.683E+00
   8.017  0.790E+00  0.697E+00
   8.027  0.807E+00  0.711E+00
   8.037  0.823E+00  0.723E+00
   8.047  0.838E+00  0.734E+00
   8.057  0.851E+00  0.743E+00
   8.067  0.862E+00  0.749E+00
   8.077  0.871E+00  0.754E+00
   8.087  0.879E+00  0.756E+00
   8.097  0.884E+00  0.756E+00
   8.107  0.888E+00  0.754E+00
   8.117  0.889E+00  0.750E+00
   8.127  0.890E+00  0.744E+00
   8.137  0.889E+00  0.738E+00
   8.147  0.887E+00  0.730E+00
   8.157  0.884E+00  0.722E+00
   8.167  0.880E+00  0.714E+00
   8.177  0.875E+00  0.705E+00
   8.187  0.870E+00  0.697E+00
   8.197  0.864E+00  0.688E+00
   8.207  0.857E+00  0.680E+00
   8.217  0.850E+00  0.673E+00
   8.227  0.843E+00  0.666E+00
   8.237  0.834E+00  0.659E+00
   8.247  0.826E+00  0.653E+00
   8.257  0.818E+00  0.648E+00
   8.267  0.809E+00  0.644E+00
   8.277  0.801E+00  0.641E+00
   8.287  0.794E+00  0.639E+00
   8.297  0.788E+00  0.638E+00
   8.307  0.783E+00  0.639E+00
   8.317  0.779E+00  0.641E+00
   8.327  0.778E+00  0.644E+00
   8.337  0.778E+00  0.649E+00
   8.347  0.780E+00  0.656E+00
   8.357  0.783E+00  0.663E+00
   8.367  0.788E+00  0.671E+00
   8.377  0.794E+00  0.680E+00
   8.387  0.801E+00  0.689E+00
   8.397  0.808E+00  0.698E+00
   8.407  0.814E+00  0.706E+00
   8.417  0.820E+00  0.713E+00
   8.427  0.824E+00  0.718E+00
   8.437  0.827E+00  0.722E+00
   8.447  0.828E+00  0.725E+00
   8.457  0.827E+00  0.726E+00
   8.467  0.824E+00  0.726E+00
   8.477  0.821E+00  0.725E+00
   8.487  0.817E+00  0.724E+00
   8.497  0.814E+00  0.724E+00
   8.507  0.812E+00  0.725E+00
   8.517  0.814E+00  0.730E+00
   8.527  0.819E+00  0.738E+00
   8.537  0.830E+00  0.752E+00
   8.547  0.848E+00  0.773E+00
   8.557  0.874E+00  0.802E+00
   8.567  0.910E+00  0.840E+00
   8.577  0.957E+00  0.887E+00
   8.587  0.102E+01  0.946E+00
   8.597  0.109E+01  0.102E+01
   8.607  0.117E+01  0.110E+01
   8.617  0.127E+01  0.119E+01
   8.627  0.137E+01  0.129E+01
   8.637  0.149E+01  0.140E+01
   8.647  0.162E+01  0.152E+01
   8.657  0.175E+01  0.165E+01
   8.667  0.189E+01  0.178E+01
   8.677  0.203E+01  0.191E+01
   8.687  0.217E+01  0.204E+01
   8.697  0.231E+01  0.217E+01
   8.707  0.245E+01  0.230E+01
   8.717  0.258E+01  0.241E+01
   8.727  0.270E+01  0.252E+01
   8.737  0.280E+01  0.261E+01
   8.747  0.289E+01  0.269E+01
   8.757  0.297E+01  0.276E+01
   8.767  0.303E+01  0.281E+01
   8.777  0.307E+01  0.285E+01
   8.787  0.310E+01  0.286E+01
   8.797  0.311E+01  0.287E+01
   8.807  0.310E+01  0.286E+01
   8.817  0.308E+01  0.283E+01
   8.827  0.305E+01  0.280E+01
   8.837  0.300E+01  0.275E+01
   8.847  0.295E+01  0.269E+01
   8.857  0.288E+01  0.263E+01
   8.867  0.282E+01  0.257E+01
   8.877  0.275E+01  0.250E+01
   8.887  0.267E+01  0.243E+01
   8.897  0.260E+01  0.237E+01
   8.907  0.253E+01  0.230E+01
   8.917  0.246E+01  0.224E+01
   8.927  0.240E+01  0.218E+01
   8.937  0.234E+01  0.213E+01
   8.947  0.229E+01  0.208E+01
   8.957  0.224E+01  0.203E+01
   8.967  0.220E+01  0.200E+01
   8.977  0.216E+01  0.196E+01
   8.987  0.213E+01  0.193E+01
   8.997  0.210E+01  0.190E+01
   9.007  0.207E+01  0.188E+01
   9.017  0.205E+01  0.186E+01
   9.027  0.203E+01  0.185E+01
   9.037  0.201E+01  0.183E+01
   9.047  0.200E+01  0.182E+01
   9.057  0.198E+01  0.180E+01
   9.067  0.197E+01  0.179E+01
   9.077  0.195E+01  0.178E+01
   9.087  0.193E+01  0.177E+01
   9.097  0.192E+01  0.175E+01
   9.107  0.190E+01  0.174E+01
   9.117  0.188E+01  0.172E+01
   9.127  0.185E+01  0.170E+01
   9.137  0.182E+01  0.168E+01
   9.147  0.179E+01  0.165E+01
   9.157  0.176E+01  0.163E+01
   9.167  0.172E+01  0.159E+01
   9.177  0.168E+01  0.156E+01
   9.187  0.164E+01  0.152E+01
   9.197  0.159E+01  0.148E+01
   9.207  0.154E+01  0.144E+01
   9.217  0.150E+01  0.139E+01
   9.227  0.145E+01  0.135E+01
   9.237  0.140E+01  0.131E+01
   9.247  0.136E+01  0.127E+01
   9.257  0.133E+01  0.123E+01
   9.267  0.130E+01  0.121E+01
   9.277  0.128E+01  0.119E+01
   9.287  0.127E+01  0.117E+01
   9.297  0.127E+01  0.117E+01
   9.307  0.129E+01  0.119E+01
   9.317  0.132E+01  0.121E+01
   9.327  0.137E+01  0.124E+01
   9.337  0.143E+01  0.129E+01
   9.347  0.150E+01  0.135E+01
   9.357  0.159E+01  0.142E+01
   9.367  0.169E+01  0.150E+01
   9.377  0.179E+01  0.159E+01
   9.387  0.191E+01  0.169E+01
   9.397  0.203E+01  0.179E+01
   9.407  0.215E+01  0.188E+01
   9.417  0.227E+01  0.198E+01
   9.427  0.239E+01  0.208E+01
   9.437  0.250E+01  0.217E+01
   9.447  0.261E+01  0.225E+01
   9.457  0.270E+01  0.232E+01
   9.467  0.278E+01  0.238E+01
   9.477  0.285E+01  0.243E+01
   9.487  0.291E+01  0.247E+01
   9.497  0.295E+01  0.250E+01
   9.507  0.298E+01  0.251E+01
   9.517  0.300E+01  0.252E+01
   9.527  0.301E+01  0.252E+01
   9.537  0.300E+01  0.251E+01
   9.547  0.299E+01  0.249E+01
   9.557  0.297E+01  0.247E+01
   9.567  0.295E+01  0.245E+01
   9.577  0.292E+01  0.242E+01
   9.587  0.289E+01  0.240E+01
   9.597  0.286E+01  0.237E+01
   9.607  0.283E+01  0.235E+01
   9.617  0.280E+01  0.233E+01
   9.627  0.276E+01  0.230E+01
   9.637  0.273E+01  0.228E+01
   9.647  0.270E+01  0.226E+01
   9.657  0.266E+01  0.224E+01
   9.667  0.262E+01  0.221E+01
   9.677  0.258E+01  0.219E+01
   9.687  0.253E+01  0.216E+01
   9.697  0.248E+01  0.212E+01
   9.707  0.243E+01  0.208E+01
   9.717  0.237E+01  0.203E+01
   9.727  0.230E+01  0.198E+01
   9.737  0.222E+01  0.192E+01
   9.747  0.214E+01  0.186E+01
   9.757  0.206E+01  0.179E+01
   9.767  0.196E+01  0.171E+01
   9.777  0.187E+01  0.163E+01
   9.787  0.177E+01  0.155E+01
   9.797  0.167E+01  0.146E+01
   9.807  0.157E+01  0.137E+01
   9.817  0.147E+01  0.128E+01
   9.827  0.138E+01  0.120E+01
   9.837  0.128E+01  0.111E+01
   9.847  0.119E+01  0.102E+01
   9.857  0.110E+01  0.942E+00
   9.867  0.102E+01  0.865E+00
   9.877  0.939E+00  0.793E+00
   9.887  0.868E+00  0.727E+00
   9.897  0.804E+00  0.667E+00
   9.907  0.747E+00  0.614E+00
   9.917  0.697E+00  0.568E+00
   9.927  0.654E+00  0.529E+00
   9.937  0.620E+00  0.498E+00
   9.947  0.592E+00  0.474E+00
   9.957  0.573E+00  0.457E+00
   9.967  0.560E+00  0.448E+00
   9.977  0.555E+00  0.446E+00
   9.987  0.557E+00  0.450E+00
   9.997  0.565E+00  0.461E+00
  10.007  0.580E+00  0.477E+00
  10.017  0.599E+00  0.498E+00
  10.027  0.624E+00  0.523E+00
  10.037  0.653E+00  0.552E+00
  10.047  0.686E+00  0.583E+00
  10.057  0.721E+00  0.616E+00
  10.067  0.758E+00  0.651E+00
  10.077  0.796E+00  0.685E+00
  10.087  0.835E+00  0.720E+00
  10.097  0.873E+00  0.753E+00
  10.107  0.911E+00  0.784E+00
  10.117  0.947E+00  0.813E+00
  10.127  0.981E+00  0.840E+00
  10.137  0.101E+01  0.864E+00
  10.147  0.104E+01  0.884E+00
  10.157  0.106E+01  0.901E+00
  10.167  0.109E+01  0.914E+00
  10.177  0.110E+01  0.923E+00
  10.187  0.112E+01  0.929E+00
  10.197  0.112E+01  0.931E+00
  10.207  0.113E+01  0.928E+00
  10.217  0.112E+01  0.922E+00
  10.227  0.112E+01  0.912E+00
  10.237  0.110E+01  0.897E+00
  10.247  0.109E+01  0.880E+00
  10.257  0.106E+01  0.858E+00
  10.267  0.103E+01  0.833E+00
  10.277  0.100E+01  0.805E+00
  10.287  0.965E+00  0.775E+00
  10.297  0.925E+00  0.742E+00
  10.307  0.881E+00  0.707E+00
  10.317  0.836E+00  0.671E+00
  10.327  0.790E+00  0.634E+00
  10.337  0.743E+00  0.598E+00
  10.347  0.697E+00  0.562E+00
  10.357  0.653E+00  0.528E+00
  10.367  0.612E+00  0.496E+00
  10.377  0.574E+00  0.467E+00
  10.387  0.541E+00  0.441E+00
  10.397  0.513E+00  0.420E+00
  10.407  0.491E+00  0.403E+00
  10.417  0.475E+00  0.391E+00
  10.427  0.466E+00  0.384E+00
  10.437  0.464E+00  0.383E+00
  10.447  0.468E+00  0.387E+00
  10.457  0.479E+00  0.396E+00
  10.467  0.497E+00  0.411E+00
  10.477  0.520E+00  0.430E+00
  10.487  0.548E+00  0.453E+00
  10.497  0.580E+00  0.480E+00
  10.507  0.616E+00  0.509E+00
  10.517  0.654E+00  0.540E+00
  10.527  0.693E+00  0.573E+00
  10.537  0.733E+00  0.606E+00
  10.547  0.771E+00  0.638E+00
  10.557  0.807E+00  0.668E+00
  10.567  0.841E+00  0.696E+00
  10.577  0.871E+00  0.722E+00
  10.587  0.896E+00  0.743E+00
  10.597  0.917E+00  0.761E+00
  10.607  0.933E+00  0.775E+00
  10.617  0.944E+00  0.784E+00
  10.627  0.950E+00  0.789E+00
  10.637  0.951E+00  0.791E+00
  10.647  0.949E+00  0.789E+00
  10.657  0.944E+00  0.785E+00
  10.667  0.937E+00  0.778E+00
  10.677  0.928E+00  0.770E+00
  10.687  0.919E+00  0.762E+00
  10.697  0.910E+00  0.753E+00
  10.707  0.903E+00  0.745E+00
  10.717  0.897E+00  0.739E+00
  10.727  0.893E+00  0.733E+00
  10.737  0.892E+00  0.729E+00
  10.747  0.893E+00  0.727E+00
  10.757  0.895E+00  0.726E+00
  10.767  0.899E+00  0.725E+00
  10.777  0.903E+00  0.725E+00
  10.787  0.907E+00  0.725E+00
  10.797  0.910E+00  0.725E+00
  10.807  0.912E+00  0.722E+00
  10.817  0.911E+00  0.719E+00
  10.827  0.908E+00  0.712E+00
  10.837  0.901E+00  0.704E+00
  10.847  0.891E+00  0.693E+00
  10.857  0.877E+00  0.679E+00
  10.867  0.860E+00  0.664E+00
  10.877  0.840E+00  0.646E+00
  10.887  0.818E+00  0.627E+00
  10.897  0.794E+00  0.607E+00
  10.907  0.770E+00  0.588E+00
  10.917  0.746E+00  0.569E+00
  10.927  0.723E+00  0.551E+00
  10.937  0.702E+00  0.535E+00
  10.947  0.683E+00  0.521E+00
  10.957  0.666E+00  0.510E+00
  10.967  0.653E+00  0.501E+00
  10.977  0.644E+00  0.496E+00
  10.987  0.638E+00  0.493E+00
  10.997  0.635E+00  0.493E+00
  11.007  0.635E+00  0.496E+00
  11.017  0.637E+00  0.500E+00
  11.027  0.642E+00  0.506E+00
  11.037  0.648E+00  0.512E+00
  11.047  0.655E+00  0.519E+00
  11.057  0.661E+00  0.525E+00
  11.067  0.668E+00  0.531E+00
  11.077  0.673E+00  0.535E+00
  11.087  0.676E+00  0.537E+00
  11.097  0.678E+00  0.537E+00
  11.107  0.677E+00  0.534E+00
  11.117  0.673E+00  0.528E+00
  11.127  0.666E+00  0.520E+00
  11.137  0.657E+00  0.508E+00
  11.147  0.644E+00  0.494E+00
  11.157  0.629E+00  0.477E+00
  11.167  0.612E+00  0.459E+00
  11.177  0.594E+00  0.438E+00
  11.187  0.573E+00  0.416E+00
  11.197  0.552E+00  0.392E+00
  11.207  0.531E+00  0.369E+00
  11.217  0.509E+00  0.345E+00
  11.227  0.489E+00  0.321E+00
  11.237  0.469E+00  0.299E+00
  11.247  0.450E+00  0.278E+00
  11.257  0.433E+00  0.258E+00
  11.267  0.418E+00  0.240E+00
  11.277  0.405E+00  0.224E+00
  11.287  0.394E+00  0.210E+00
  11.297  0.386E+00  0.199E+00
  11.307  0.381E+00  0.190E+00
  11.317  0.378E+00  0.184E+00
  11.327  0.378E+00  0.180E+00
  11.337  0.382E+00  0.180E+00
  11.347  0.388E+00  0.182E+00
  11.357  0.397E+00  0.187E+00
  11.367  0.410E+00  0.196E+00
  11.377  0.426E+00  0.207E+00
  11.387  0.446E+00  0.222E+00
  11.397  0.469E+00  0.240E+00
  11.407  0.495E+00  0.261E+00
  11.417  0.524E+00  0.285E+00
  11.427  0.557E+00  0.313E+00
  11.437  0.593E+00  0.344E+00
  11.447  0.631E+00  0.378E+00
  11.457  0.671E+00  0.415E+00
  11.467  0.714E+00  0.454E+00
  11.477  0.757E+00  0.496E+00
  11.487  0.802E+00  0.539E+00
  11.497  0.846E+00  0.583E+00
  11.507  0.890E+00  0.628E+00
  11.517  0.933E+00  0.672E+00
  11.527  0.974E+00  0.715E+00
  11.537  0.101E+01  0.757E+00
  11.547  0.105E+01  0.796E+00
  11.557  0.108E+01  0.832E+00
  11.567  0.111E+01  0.864E+00
  11.577  0.113E+01  0.891E+00
  11.587  0.115E+01  0.914E+00
  11.597  0.116E+01  0.931E+00
  11.607  0.117E+01  0.943E+00
  11.617  0.117E+01  0.949E+00
  11.627  0.117E+01  0.950E+00
  11.637  0.116E+01  0.946E+00
  11.647  0.115E+01  0.937E+00
  11.657  0.113E+01  0.924E+00
  11.667  0.112E+01  0.907E+00
  11.677  0.110E+01  0.887E+00
  11.687  0.108E+01  0.864E+00
  11.697  0.105E+01  0.840E+00
  11.707  0.103E+01  0.814E+00
  11.717  0.100E+01  0.787E+00
  11.727  0.980E+00  0.759E+00
  11.737  0.955E+00  0.731E+00
  11.747  0.930E+00  0.704E+00
  11.757  0.905E+00  0.677E+00
  11.767  0.880E+00  0.650E+00
  11.777  0.855E+00  0.625E+00
  11.787  0.831E+00  0.600E+00
  11.797  0.807E+00  0.577E+00
  11.807  0.784E+00  0.555E+00
  11.817  0.763E+00  0.535E+00
  11.827  0.742E+00  0.516E+00
  11.837  0.724E+00  0.500E+00
  11.847  0.709E+00  0.486E+00
  11.857  0.696E+00  0.475E+00
  11.867  0.686E+00  0.466E+00
  11.877  0.680E+00  0.460E+00
  11.887  0.678E+00  0.457E+00
  11.897  0.679E+00  0.457E+00
  11.907  0.684E+00  0.460E+00
  11.917  0.693E+00  0.465E+00
  11.927  0.705E+00  0.472E+00
  11.937  0.720E+00  0.482E+00
  11.947  0.736E+00  0.492E+00
  11.957  0.754E+00  0.503E+00
  11.967  0.772E+00  0.514E+00
  11.977  0.789E+00  0.524E+00
  11.987  0.805E+00  0.532E+00
  11.997  0.819E+00  0.539E+00
  12.007  0.829E+00  0.544E+00
  12.017  0.836E+00  0.545E+00
  12.027  0.838E+00  0.544E+00
  12.037  0.837E+00  0.539E+00
  12.047  0.832E+00  0.531E+00
  12.057  0.823E+00  0.521E+00
  12.067  0.812E+00  0.508E+00
  12.077  0.798E+00  0.493E+00
  12.087  0.783E+00  0.476E+00
  12.097  0.769E+00  0.459E+00
  12.107  0.755E+00  0.441E+00
  12.117  0.745E+00  0.424E+00
  12.127  0.737E+00  0.409E+00
  12.137  0.734E+00  0.395E+00
  12.147  0.737E+00  0.384E+00
  12.157  0.746E+00  0.376E+00
  12.167  0.762E+00  0.371E+00
  12.177  0.784E+00  0.370E+00
  12.187  0.815E+00  0.373E+00
  12.197  0.852E+00  0.380E+00
  12.207  0.897E+00  0.390E+00
  12.217  0.948E+00  0.405E+00
  12.227  0.100E+01  0.422E+00
  12.237  0.107E+01  0.443E+00
  12.247  0.113E+01  0.467E+00
  12.257  0.120E+01  0.493E+00
  12.267  0.127E+01  0.520E+00
  12.277  0.134E+01  0.549E+00
  12.287  0.141E+01  0.578E+00
  12.297  0.147E+01  0.606E+00
  12.307  0.153E+01  0.634E+00
  12.317  0.159E+01  0.659E+00
  12.327  0.164E+01  0.682E+00
  12.337  0.168E+01  0.701E+00
  12.347  0.171E+01  0.717E+00
  12.357  0.173E+01  0.728E+00
  12.367  0.174E+01  0.734E+00
  12.377  0.174E+01  0.736E+00
  12.387  0.173E+01  0.732E+00
  12.397  0.171E+01  0.724E+00
  12.407  0.168E+01  0.711E+00
  12.417  0.164E+01  0.693E+00
  12.427  0.160E+01  0.672E+00
  12.437  0.154E+01  0.648E+00
  12.447  0.149E+01  0.621E+00
  12.457  0.143E+01  0.593E+00
  12.467  0.136E+01  0.563E+00
  12.477  0.130E+01  0.533E+00
  12.487  0.124E+01  0.504E+00
  12.497  0.118E+01  0.476E+00
  12.507  0.113E+01  0.449E+00
  12.517  0.108E+01  0.424E+00
  12.527  0.103E+01  0.400E+00
  12.537  0.992E+00  0.379E+00
  12.547  0.957E+00  0.360E+00
  12.557  0.928E+00  0.343E+00
  12.567  0.904E+00  0.328E+00
  12.577  0.884E+00  0.315E+00
  12.587  0.869E+00  0.304E+00
  12.597  0.856E+00  0.294E+00
  12.607  0.846E+00  0.285E+00
  12.617  0.839E+00  0.278E+00
  12.627  0.833E+00  0.273E+00
  12.637  0.828E+00  0.268E+00
  12.647  0.823E+00  0.265E+00
  12.657  0.820E+00  0.264E+00
  12.667  0.816E+00  0.263E+00
  12.677  0.812E+00  0.264E+00
  12.687  0.809E+00  0.267E+00
  12.697  0.805E+00  0.271E+00
  12.707  0.801E+00  0.276E+00
  12.717  0.797E+00  0.282E+00
  12.727  0.793E+00  0.290E+00
  12.737  0.789E+00  0.298E+00
  12.747  0.785E+00  0.307E+00
  12.757  0.781E+00  0.316E+00
  12.767  0.777E+00  0.325E+00
  12.777  0.774E+00  0.334E+00
  12.787  0.770E+00  0.343E+00
  12.797  0.767E+00  0.351E+00
  12.807  0.765E+00  0.359E+00
  12.817  0.764E+00  0.366E+00
  12.827  0.763E+00  0.371E+00
  12.837  0.765E+00  0.376E+00
  12.847  0.767E+00  0.380E+00
  12.857  0.772E+00  0.383E+00
  12.867  0.778E+00  0.384E+00
  12.877  0.787E+00  0.385E+00
  12.887  0.797E+00  0.385E+00
  12.897  0.809E+00  0.384E+00
  12.907  0.822E+00  0.382E+00
  12.917  0.837E+00  0.380E+00
  12.927  0.853E+00  0.376E+00
  12.937  0.869E+00  0.373E+00
  12.947  0.886E+00  0.369E+00
  12.957  0.904E+00  0.365E+00
  12.967  0.921E+00  0.361E+00
  12.977  0.938E+00  0.358E+00
  12.987  0.955E+00  0.356E+00
  12.997  0.973E+00  0.355E+00
  13.007  0.990E+00  0.356E+00
  13.017  0.101E+01  0.358E+00
  13.027  0.103E+01  0.364E+00
  13.037  0.105E+01  0.372E+00
  13.047  0.107E+01  0.384E+00
  13.057  0.110E+01  0.399E+00
  13.067  0.113E+01  0.418E+00
  13.077  0.116E+01  0.441E+00
  13.087  0.120E+01  0.467E+00
  13.097  0.124E+01  0.496E+00
  13.107  0.129E+01  0.528E+00
  13.117  0.134E+01  0.562E+00
  13.127  0.139E+01  0.598E+00
  13.137  0.144E+01  0.634E+00
  13.147  0.150E+01  0.670E+00
  13.157  0.156E+01  0.705E+00
  13.167  0.162E+01  0.738E+00
  13.177  0.168E+01  0.768E+00
  13.187  0.174E+01  0.794E+00
  13.197  0.179E+01  0.815E+00
  13.207  0.184E+01  0.832E+00
  13.217  0.189E+01  0.844E+00
  13.227  0.193E+01  0.850E+00
  13.237  0.196E+01  0.850E+00
  13.247  0.198E+01  0.845E+00
  13.257  0.200E+01  0.835E+00
  13.267  0.201E+01  0.820E+00
  13.277  0.201E+01  0.801E+00
  13.287  0.200E+01  0.779E+00
  13.297  0.198E+01  0.753E+00
  13.307  0.195E+01  0.725E+00
  13.317  0.192E+01  0.696E+00
  13.327  0.188E+01  0.667E+00
  13.337  0.184E+01  0.637E+00
  13.347  0.179E+01  0.607E+00
  13.357  0.174E+01  0.579E+00
  13.367  0.169E+01  0.552E+00
  13.377  0.165E+01  0.527E+00
  13.387  0.161E+01  0.503E+00
  13.397  0.157E+01  0.482E+00
  13.407  0.154E+01  0.463E+00
  13.417  0.151E+01  0.446E+00
  13.427  0.149E+01  0.431E+00
  13.437  0.148E+01  0.418E+00
  13.447  0.148E+01  0.407E+00
  13.457  0.149E+01  0.398E+00
  13.467  0.150E+01  0.391E+00
  13.477  0.153E+01  0.385E+00
  13.487  0.156E+01  0.381E+00
  13.497  0.159E+01  0.378E+00
  13.507  0.163E+01  0.376E+00
  13.517  0.168E+01  0.375E+00
  13.527  0.172E+01  0.376E+00
  13.537  0.177E+01  0.378E+00
  13.547  0.181E+01  0.380E+00
  13.557  0.186E+01  0.384E+00
  13.567  0.190E+01  0.388E+00
  13.577  0.194E+01  0.393E+00
  13.587  0.198E+01  0.398E+00
  13.597  0.201E+01  0.404E+00
  13.607  0.204E+01  0.411E+00
  13.617  0.207E+01  0.417E+00
  13.627  0.209E+01  0.424E+00
  13.637  0.212E+01  0.431E+00
  13.647  0.214E+01  0.438E+00
  13.657  0.216E+01  0.446E+00
  13.667  0.219E+01  0.453E+00
  13.677  0.222E+01  0.459E+00
  13.687  0.225E+01  0.466E+00
  13.697  0.228E+01  0.472E+00
  13.707  0.232E+01  0.477E+00
  13.717  0.236E+01  0.481E+00
  13.727  0.240E+01  0.485E+00
  13.737  0.245E+01  0.487E+00
  13.747  0.249E+01  0.488E+00
  13.757  0.254E+01  0.488E+00
  13.767  0.259E+01  0.486E+00
  13.777  0.263E+01  0.483E+00
  13.787  0.268E+01  0.478E+00
  13.797  0.272E+01  0.472E+00
  13.807  0.275E+01  0.465E+00
  13.817  0.279E+01  0.456E+00
  13.827  0.281E+01  0.447E+00
  13.837  0.284E+01  0.438E+00
  13.847  0.286E+01  0.428E+00
  13.857  0.288E+01  0.419E+00
  13.867  0.289E+01  0.410E+00
  13.877  0.290E+01  0.402E+00
  13.887  0.291E+01  0.396E+00
  13.897  0.292E+01  0.391E+00
  13.907  0.293E+01  0.388E+00
  13.917  0.294E+01  0.387E+00
  13.927  0.294E+01  0.388E+00
  13.937  0.294E+01  0.391E+00
  13.947  0.294E+01  0.395E+00
  13.957  0.293E+01  0.401E+00
  13.967  0.292E+01  0.407E+00
  13.977  0.290E+01  0.415E+00
  13.987  0.287E+01  0.422E+00
  13.997  0.284E+01  0.430E+00
  14.007  0.280E+01  0.437E+00
  14.017  0.276E+01  0.443E+00
  14.027  0.270E+01  0.448E+00
  14.037  0.264E+01  0.451E+00
  14.047  0.258E+01  0.453E+00
  14.057  0.251E+01  0.453E+00
  14.067  0.245E+01  0.452E+00
  14.077  0.238E+01  0.448E+00
  14.087  0.231E+01  0.444E+00
  14.097  0.224E+01  0.438E+00
  14.107  0.217E+01  0.431E+00
  14.117  0.211E+01  0.423E+00
  14.127  0.205E+01  0.415E+00
  14.137  0.199E+01  0.407E+00
  14.147  0.194E+01  0.399E+00
  14.157  0.190E+01  0.391E+00
  14.167  0.185E+01  0.383E+00
  14.177  0.181E+01  0.377E+00
  14.187  0.178E+01  0.371E+00
  14.197  0.174E+01  0.366E+00
  14.207  0.171E+01  0.361E+00
  14.217  0.168E+01  0.358E+00
  14.227  0.165E+01  0.355E+00
  14.237  0.162E+01  0.353E+00
  14.247  0.159E+01  0.352E+00
  14.257  0.156E+01  0.350E+00
  14.267  0.153E+01  0.349E+00
  14.277  0.151E+01  0.348E+00
  14.287  0.148E+01  0.347E+00
  14.297  0.145E+01  0.345E+00
  14.307  0.143E+01  0.343E+00
  14.317  0.140E+01  0.339E+00
  14.327  0.137E+01  0.335E+00
  14.337  0.135E+01  0.329E+00
  14.347  0.132E+01  0.322E+00
  14.357  0.129E+01  0.314E+00
  14.367  0.126E+01  0.304E+00
  14.377  0.122E+01  0.293E+00
  14.387  0.119E+01  0.281E+00
  14.397  0.115E+01  0.269E+00
  14.407  0.111E+01  0.255E+00
  14.417  0.107E+01  0.242E+00
  14.427  0.103E+01  0.229E+00
  14.437  0.993E+00  0.217E+00
  14.447  0.954E+00  0.205E+00
  14.457  0.917E+00  0.195E+00
  14.467  0.881E+00  0.186E+00
  14.477  0.848E+00  0.180E+00
  14.487  0.820E+00  0.175E+00
  14.497  0.795E+00  0.173E+00
  14.507  0.775E+00  0.173E+00
  14.517  0.761E+00  0.176E+00
  14.527  0.753E+00  0.181E+00
  14.537  0.751E+00  0.189E+00
  14.547  0.755E+00  0.198E+00
  14.557  0.765E+00  0.210E+00
  14.567  0.781E+00  0.223E+00
  14.577  0.802E+00  0.237E+00
  14.587  0.829E+00  0.253E+00
  14.597  0.861E+00  0.270E+00
  14.607  0.896E+00  0.287E+00
  14.617  0.935E+00  0.304E+00
  14.627  0.977E+00  0.321E+00
  14.637  0.102E+01  0.337E+00
  14.647  0.107E+01  0.353E+00
  14.657  0.111E+01  0.369E+00
  14.667  0.116E+01  0.383E+00
  14.677  0.120E+01  0.396E+00
  14.687  0.125E+01  0.408E+00
  14.697  0.129E+01  0.419E+00
  14.707  0.133E+01  0.429E+00
  14.717  0.136E+01  0.437E+00
  14.727  0.140E+01  0.445E+00
  14.737  0.143E+01  0.451E+00
  14.747  0.146E+01  0.456E+00
  14.757  0.149E+01  0.461E+00
  14.767  0.151E+01  0.465E+00
  14.777  0.153E+01  0.468E+00
  14.787  0.154E+01  0.470E+00
  14.797  0.156E+01  0.472E+00
  14.807  0.157E+01  0.474E+00
  14.817  0.158E+01  0.475E+00
  14.827  0.159E+01  0.475E+00
  14.837  0.159E+01  0.475E+00
  14.847  0.160E+01  0.474E+00
  14.857  0.161E+01  0.472E+00
  14.867  0.161E+01  0.470E+00
  14.877  0.162E+01  0.467E+00
  14.887  0.163E+01  0.462E+00
  14.897  0.163E+01  0.457E+00
  14.907  0.164E+01  0.450E+00
  14.917  0.165E+01  0.443E+00
  14.927  0.166E+01  0.434E+00
  14.937  0.167E+01  0.425E+00
  14.947  0.168E+01  0.415E+00
  14.957  0.168E+01  0.404E+00
  14.967  0.169E+01  0.393E+00
  14.977  0.169E+01  0.381E+00
  14.987  0.169E+01  0.369E+00
  14.997  0.168E+01  0.357E+00
  15.007  0.167E+01  0.345E+00
  15.017  0.165E+01  0.333E+00
  15.027  0.163E+01  0.321E+00
  15.037  0.160E+01  0.309E+00
  15.047  0.156E+01  0.298E+00
  15.057  0.152E+01  0.286E+00
  15.067  0.148E+01  0.276E+00
  15.077  0.143E+01  0.265E+00
  15.087  0.137E+01  0.255E+00
  15.097  0.132E+01  0.245E+00
  15.107  0.126E+01  0.235E+00
  15.117  0.120E+01  0.226E+00
  15.127  0.113E+01  0.217E+00
  15.137  0.107E+01  0.208E+00
  15.147  0.101E+01  0.200E+00
  15.157  0.952E+00  0.192E+00
  15.167  0.894E+00  0.185E+00
  15.177  0.840E+00  0.179E+00
  15.187  0.790E+00  0.173E+00
  15.197  0.744E+00  0.168E+00
  15.207  0.702E+00  0.164E+00
  15.217  0.666E+00  0.161E+00
  15.227  0.636E+00  0.159E+00
  15.237  0.611E+00  0.157E+00
  15.247  0.592E+00  0.157E+00
  15.257  0.580E+00  0.158E+00
  15.267  0.573E+00  0.160E+00
  15.277  0.573E+00  0.163E+00
  15.287  0.578E+00  0.167E+00
  15.297  0.588E+00  0.172E+00
  15.307  0.604E+00  0.178E+00
  15.317  0.623E+00  0.184E+00
  15.327  0.646E+00  0.190E+00
  15.337  0.671E+00  0.196E+00
  15.347  0.699E+00  0.203E+00
  15.357  0.726E+00  0.210E+00
  15.367  0.754E+00  0.216E+00
  15.377  0.781E+00  0.222E+00
  15.387  0.805E+00  0.228E+00
  15.397  0.827E+00  0.233E+00
  15.407  0.845E+00  0.238E+00
  15.417  0.860E+00  0.243E+00
  15.427  0.870E+00  0.247E+00
  15.437  0.875E+00  0.250E+00
  15.447  0.877E+00  0.254E+00
  15.457  0.873E+00  0.257E+00
  15.467  0.867E+00  0.260E+00
  15.477  0.856E+00  0.263E+00
  15.487  0.844E+00  0.267E+00
  15.497  0.829E+00  0.271E+00
  15.507  0.814E+00  0.276E+00
  15.517  0.799E+00  0.281E+00
  15.527  0.786E+00  0.288E+00
  15.537  0.774E+00  0.297E+00
  15.547  0.766E+00  0.306E+00
  15.557  0.761E+00  0.318E+00
  15.567  0.760E+00  0.332E+00
  15.577  0.764E+00  0.347E+00
  15.587  0.772E+00  0.364E+00
  15.597  0.786E+00  0.384E+00
  15.607  0.804E+00  0.404E+00
  15.617  0.826E+00  0.427E+00
  15.627  0.851E+00  0.450E+00
  15.637  0.879E+00  0.474E+00
  15.647  0.909E+00  0.498E+00
  15.657  0.941E+00  0.522E+00
  15.667  0.972E+00  0.544E+00
  15.677  0.100E+01  0.565E+00
  15.687  0.103E+01  0.584E+00
  15.697  0.106E+01  0.600E+00
  15.707  0.108E+01  0.614E+00
  15.717  0.111E+01  0.624E+00
  15.727  0.113E+01  0.630E+00
  15.737  0.114E+01  0.632E+00
  15.747  0.116E+01  0.631E+00
  15.757  0.117E+01  0.626E+00
  15.767  0.118E+01  0.618E+00
  15.777  0.119E+01  0.607E+00
  15.787  0.119E+01  0.593E+00
  15.797  0.120E+01  0.577E+00
  15.807  0.121E+01  0.560E+00
  15.817  0.122E+01  0.542E+00
  15.827  0.124E+01  0.523E+00
  15.837  0.126E+01  0.505E+00
  15.847  0.128E+01  0.488E+00
  15.857  0.130E+01  0.472E+00
  15.867  0.133E+01  0.457E+00
  15.877  0.136E+01  0.445E+00
  15.887  0.139E+01  0.434E+00
  15.897  0.143E+01  0.426E+00
  15.907  0.146E+01  0.419E+00
  15.917  0.150E+01  0.415E+00
  15.927  0.153E+01  0.412E+00
  15.937  0.156E+01  0.410E+00
  15.947  0.159E+01  0.410E+00
  15.957  0.161E+01  0.409E+00
  15.967  0.162E+01  0.409E+00
  15.977  0.162E+01  0.409E+00
  15.987  0.162E+01  0.407E+00
  15.997  0.160E+01  0.405E+00
  16.007  0.158E+01  0.402E+00
  16.017  0.154E+01  0.397E+00
  16.027  0.150E+01  0.392E+00
  16.037  0.144E+01  0.385E+00
  16.047  0.138E+01  0.377E+00
  16.057  0.132E+01  0.369E+00
  16.067  0.125E+01  0.361E+00
  16.077  0.118E+01  0.353E+00
  16.087  0.110E+01  0.346E+00
  16.097  0.103E+01  0.340E+00
  16.107  0.961E+00  0.335E+00
  16.117  0.896E+00  0.332E+00
  16.127  0.836E+00  0.331E+00
  16.137  0.783E+00  0.333E+00
  16.147  0.736E+00  0.336E+00
  16.157  0.697E+00  0.342E+00
  16.167  0.666E+00  0.349E+00
  16.177  0.642E+00  0.357E+00
  16.187  0.625E+00  0.366E+00
  16.197  0.615E+00  0.376E+00
  16.207  0.610E+00  0.385E+00
  16.217  0.611E+00  0.394E+00
  16.227  0.616E+00  0.401E+00
  16.237  0.624E+00  0.407E+00
  16.247  0.636E+00  0.410E+00
  16.257  0.649E+00  0.411E+00
  16.267  0.664E+00  0.409E+00
  16.277  0.679E+00  0.405E+00
  16.287  0.696E+00  0.399E+00
  16.297  0.712E+00  0.390E+00
  16.307  0.728E+00  0.379E+00
  16.317  0.744E+00  0.365E+00
  16.327  0.760E+00  0.351E+00
  16.337  0.775E+00  0.335E+00
  16.347  0.789E+00  0.319E+00
  16.357  0.803E+00  0.302E+00
  16.367  0.816E+00  0.285E+00
  16.377  0.828E+00  0.269E+00
  16.387  0.840E+00  0.252E+00
  16.397  0.851E+00  0.237E+00
  16.407  0.862E+00  0.222E+00
  16.417  0.872E+00  0.208E+00
  16.427  0.881E+00  0.195E+00
  16.437  0.890E+00  0.183E+00
  16.447  0.899E+00  0.172E+00
  16.457  0.907E+00  0.162E+00
  16.467  0.915E+00  0.154E+00
  16.477  0.924E+00  0.146E+00
  16.487  0.932E+00  0.139E+00
  16.497  0.939E+00  0.133E+00
  16.507  0.947E+00  0.127E+00
  16.517  0.954E+00  0.123E+00
  16.527  0.960E+00  0.119E+00
  16.537  0.966E+00  0.116E+00
  16.547  0.972E+00  0.114E+00
  16.557  0.976E+00  0.112E+00
  16.567  0.979E+00  0.110E+00
  16.577  0.981E+00  0.108E+00
  16.587  0.981E+00  0.107E+00
  16.597  0.980E+00  0.106E+00
  16.607  0.978E+00  0.104E+00
  16.617  0.975E+00  0.103E+00
  16.627  0.971E+00  0.101E+00
  16.637  0.966E+00  0.993E-01
  16.647  0.961E+00  0.973E-01
  16.657  0.955E+00  0.950E-01
  16.667  0.951E+00  0.926E-01
  16.677  0.947E+00  0.901E-01
  16.687  0.944E+00  0.875E-01
  16.697  0.942E+00  0.850E-01
  16.707  0.943E+00  0.825E-01
  16.717  0.946E+00  0.803E-01
  16.727  0.952E+00  0.783E-01
  16.737  0.960E+00  0.767E-01
  16.747  0.971E+00  0.754E-01
  16.757  0.984E+00  0.747E-01
  16.767  0.100E+01  0.745E-01
  16.777  0.102E+01  0.748E-01
  16.787  0.104E+01  0.757E-01
  16.797  0.106E+01  0.771E-01
  16.807  0.108E+01  0.790E-01
  16.817  0.110E+01  0.813E-01
  16.827  0.112E+01  0.841E-01
  16.837  0.114E+01  0.872E-01
  16.847  0.116E+01  0.905E-01
  16.857  0.117E+01  0.941E-01
  16.867  0.119E+01  0.978E-01
  16.877  0.120E+01  0.101E+00
  16.887  0.121E+01  0.105E+00
  16.897  0.122E+01  0.109E+00
  16.907  0.123E+01  0.112E+00
  16.917  0.123E+01  0.116E+00
  16.927  0.124E+01  0.119E+00
  16.937  0.125E+01  0.122E+00
  16.947  0.126E+01  0.125E+00
  16.957  0.127E+01  0.127E+00
  16.967  0.128E+01  0.129E+00
  16.977  0.130E+01  0.132E+00
  16.987  0.132E+01  0.133E+00
  16.997  0.135E+01  0.135E+00
  17.007  0.138E+01  0.136E+00
  17.017  0.142E+01  0.137E+00
  17.027  0.146E+01  0.138E+00
  17.037  0.151E+01  0.138E+00
  17.047  0.157E+01  0.139E+00
  17.057  0.163E+01  0.139E+00
  17.067  0.170E+01  0.139E+00
  17.077  0.178E+01  0.138E+00
  17.087  0.186E+01  0.138E+00
  17.097  0.195E+01  0.138E+00
  17.107  0.204E+01  0.137E+00
  17.117  0.214E+01  0.137E+00
  17.127  0.225E+01  0.137E+00
  17.137  0.236E+01  0.137E+00
  17.147  0.247E+01  0.137E+00
  17.157  0.259E+01  0.138E+00
  17.167  0.270E+01  0.138E+00
  17.177  0.282E+01  0.140E+00
  17.187  0.292E+01  0.141E+00
  17.197  0.303E+01  0.143E+00
  17.207  0.312E+01  0.146E+00
  17.217  0.321E+01  0.149E+00
  17.227  0.328E+01  0.152E+00
  17.237  0.334E+01  0.156E+00
  17.247  0.339E+01  0.160E+00
  17.257  0.343E+01  0.165E+00
  17.267  0.345E+01  0.169E+00
  17.277  0.345E+01  0.174E+00
  17.287  0.345E+01  0.180E+00
  17.297  0.343E+01  0.185E+00
  17.307  0.340E+01  0.191E+00
  17.317  0.337E+01  0.197E+00
  17.327  0.333E+01  0.203E+00
  17.337  0.328E+01  0.209E+00
  17.347  0.323E+01  0.215E+00
  17.357  0.319E+01  0.221E+00
  17.367  0.314E+01  0.227E+00
  17.377  0.310E+01  0.233E+00
  17.387  0.306E+01  0.239E+00
  17.397  0.302E+01  0.244E+00
  17.407  0.299E+01  0.250E+00
  17.417  0.296E+01  0.254E+00
  17.427  0.293E+01  0.258E+00
  17.437  0.290E+01  0.262E+00
  17.447  0.287E+01  0.265E+00
  17.457  0.284E+01  0.266E+00
  17.467  0.281E+01  0.266E+00
  17.477  0.277E+01  0.266E+00
  17.487  0.272E+01  0.263E+00
  17.497  0.266E+01  0.260E+00
  17.507  0.259E+01  0.254E+00
  17.517  0.252E+01  0.247E+00
  17.527  0.243E+01  0.239E+00
  17.537  0.233E+01  0.229E+00
  17.547  0.223E+01  0.219E+00
  17.557  0.212E+01  0.207E+00
  17.567  0.200E+01  0.194E+00
  17.577  0.189E+01  0.180E+00
  17.587  0.177E+01  0.167E+00
  17.597  0.165E+01  0.153E+00
  17.607  0.154E+01  0.139E+00
  17.617  0.144E+01  0.126E+00
  17.627  0.134E+01  0.114E+00
  17.637  0.125E+01  0.102E+00
  17.647  0.118E+01  0.917E-01
  17.657  0.111E+01  0.825E-01
  17.667  0.107E+01  0.747E-01
  17.677  0.103E+01  0.681E-01
  17.687  0.101E+01  0.630E-01
  17.697  0.995E+00  0.592E-01
  17.707  0.997E+00  0.566E-01
  17.717  0.101E+01  0.552E-01
  17.727  0.103E+01  0.550E-01
  17.737  0.106E+01  0.556E-01
  17.747  0.109E+01  0.570E-01
  17.757  0.113E+01  0.590E-01
  17.767  0.117E+01  0.615E-01
  17.777  0.120E+01  0.642E-01
  17.787  0.124E+01  0.669E-01
  17.797  0.127E+01  0.696E-01
  17.807  0.130E+01  0.721E-01
  17.817  0.132E+01  0.741E-01
  17.827  0.134E+01  0.757E-01
  17.837  0.134E+01  0.767E-01
  17.847  0.134E+01  0.770E-01
  17.857  0.133E+01  0.766E-01
  17.867  0.132E+01  0.756E-01
  17.877  0.129E+01  0.738E-01
  17.887  0.126E+01  0.714E-01
  17.897  0.123E+01  0.684E-01
  17.907  0.119E+01  0.650E-01
  17.917  0.114E+01  0.611E-01
  17.927  0.110E+01  0.570E-01
  17.937  0.105E+01  0.527E-01
  17.947  0.100E+01  0.484E-01
  17.957  0.956E+00  0.441E-01
  17.967  0.912E+00  0.400E-01
  17.977  0.870E+00  0.362E-01
  17.987  0.832E+00  0.328E-01
  17.997  0.798E+00  0.298E-01
  18.007  0.768E+00  0.273E-01
  18.017  0.744E+00  0.254E-01
  18.027  0.727E+00  0.240E-01
  18.037  0.715E+00  0.233E-01
  18.047  0.712E+00  0.231E-01
  18.057  0.715E+00  0.236E-01
  18.067  0.727E+00  0.247E-01
  18.077  0.747E+00  0.263E-01
  18.087  0.775E+00  0.285E-01
  18.097  0.811E+00  0.312E-01
  18.107  0.855E+00  0.343E-01
  18.117  0.906E+00  0.377E-01
  18.127  0.963E+00  0.415E-01
  18.137  0.103E+01  0.454E-01
  18.147  0.109E+01  0.496E-01
  18.157  0.116E+01  0.538E-01
  18.167  0.123E+01  0.580E-01
  18.177  0.129E+01  0.621E-01
  18.187  0.136E+01  0.662E-01
  18.197  0.142E+01  0.700E-01
  18.207  0.147E+01  0.737E-01
  18.217  0.152E+01  0.773E-01
  18.227  0.156E+01  0.806E-01
  18.237  0.159E+01  0.837E-01
  18.247  0.162E+01  0.868E-01
  18.257  0.163E+01  0.897E-01
  18.267  0.164E+01  0.926E-01
  18.277  0.165E+01  0.955E-01
  18.287  0.164E+01  0.984E-01
  18.297  0.163E+01  0.101E+00
  18.307  0.162E+01  0.105E+00
  18.317  0.161E+01  0.108E+00
  18.327  0.159E+01  0.111E+00
  18.337  0.157E+01  0.114E+00
  18.347  0.155E+01  0.118E+00
  18.357  0.154E+01  0.121E+00
  18.367  0.152E+01  0.124E+00
  18.377  0.150E+01  0.128E+00
  18.387  0.148E+01  0.130E+00
  18.397  0.146E+01  0.133E+00
  18.407  0.144E+01  0.135E+00
  18.417  0.142E+01  0.137E+00
  18.427  0.140E+01  0.138E+00
  18.437  0.137E+01  0.139E+00
  18.447  0.135E+01  0.139E+00
  18.457  0.132E+01  0.140E+00
  18.467  0.130E+01  0.139E+00
  18.477  0.127E+01  0.139E+00
  18.487  0.125E+01  0.138E+00
  18.497  0.122E+01  0.138E+00
  18.507  0.120E+01  0.138E+00
  18.517  0.119E+01  0.137E+00
  18.527  0.117E+01  0.138E+00
  18.537  0.116E+01  0.138E+00
  18.547  0.116E+01  0.139E+00
  18.557  0.116E+01  0.140E+00
  18.567  0.117E+01  0.142E+00
  18.577  0.119E+01  0.144E+00
  18.587  0.121E+01  0.146E+00
  18.597  0.124E+01  0.149E+00
  18.607  0.127E+01  0.151E+00
  18.617  0.131E+01  0.153E+00
  18.627  0.135E+01  0.155E+00
  18.637  0.140E+01  0.157E+00
  18.647  0.145E+01  0.158E+00
  18.657  0.150E+01  0.158E+00
  18.667  0.155E+01  0.157E+00
  18.677  0.160E+01  0.156E+00
  18.687  0.165E+01  0.154E+00
  18.697  0.169E+01  0.150E+00
  18.707  0.174E+01  0.146E+00
  18.717  0.178E+01  0.142E+00
  18.727  0.181E+01  0.136E+00
  18.737  0.184E+01  0.130E+00
  18.747  0.186E+01  0.124E+00
  18.757  0.188E+01  0.118E+00
  18.767  0.189E+01  0.111E+00
  18.777  0.189E+01  0.105E+00
  18.787  0.188E+01  0.990E-01
  18.797  0.187E+01  0.937E-01
  18.807  0.184E+01  0.891E-01
  18.817  0.181E+01  0.854E-01
  18.827  0.177E+01  0.826E-01
  18.837  0.172E+01  0.810E-01
  18.847  0.166E+01  0.807E-01
  18.857  0.160E+01  0.817E-01
  18.867  0.154E+01  0.840E-01
  18.877  0.147E+01  0.879E-01
  18.887  0.140E+01  0.931E-01
  18.897  0.133E+01  0.998E-01
  18.907  0.127E+01  0.108E+00
  18.917  0.121E+01  0.117E+00
  18.927  0.115E+01  0.128E+00
  18.937  0.110E+01  0.139E+00
  18.947  0.106E+01  0.151E+00
  18.957  0.103E+01  0.163E+00
  18.967  0.100E+01  0.176E+00
  18.977  0.983E+00  0.188E+00
  18.987  0.974E+00  0.200E+00
  18.997  0.972E+00  0.211E+00
  19.007  0.979E+00  0.221E+00
  19.017  0.991E+00  0.229E+00
  19.027  0.101E+01  0.235E+00
  19.037  0.103E+01  0.240E+00
  19.047  0.106E+01  0.243E+00
  19.057  0.108E+01  0.243E+00
  19.067  0.111E+01  0.242E+00
  19.077  0.114E+01  0.238E+00
  19.087  0.117E+01  0.232E+00
  19.097  0.120E+01  0.225E+00
  19.107  0.122E+01  0.216E+00
  19.117  0.124E+01  0.205E+00
  19.127  0.126E+01  0.194E+00
  19.137  0.127E+01  0.182E+00
  19.147  0.128E+01  0.170E+00
  19.157  0.128E+01  0.157E+00
  19.167  0.129E+01  0.145E+00
  19.177  0.129E+01  0.134E+00
  19.187  0.128E+01  0.123E+00
  19.197  0.128E+01  0.113E+00
  19.207  0.128E+01  0.104E+00
  19.217  0.128E+01  0.962E-01
  19.227  0.128E+01  0.900E-01
  19.237  0.128E+01  0.852E-01
  19.247  0.129E+01  0.819E-01
  19.257  0.130E+01  0.802E-01
  19.267  0.132E+01  0.800E-01
  19.277  0.135E+01  0.813E-01
  19.287  0.139E+01  0.841E-01
  19.297  0.143E+01  0.884E-01
  19.307  0.149E+01  0.941E-01
  19.317  0.155E+01  0.101E+00
  19.327  0.161E+01  0.109E+00
  19.337  0.168E+01  0.118E+00
  19.347  0.176E+01  0.129E+00
  19.357  0.184E+01  0.139E+00
  19.367  0.192E+01  0.151E+00
  19.377  0.199E+01  0.163E+00
  19.387  0.207E+01  0.175E+00
  19.397  0.213E+01  0.187E+00
  19.407  0.219E+01  0.199E+00
  19.417  0.225E+01  0.210E+00
  19.427  0.229E+01  0.221E+00
  19.437  0.232E+01  0.231E+00
  19.447  0.234E+01  0.239E+00
  19.457  0.235E+01  0.247E+00
  19.467  0.235E+01  0.253E+00
  19.477  0.234E+01  0.258E+00
  19.487  0.232E+01  0.261E+00
  19.497  0.230E+01  0.262E+00
  19.507  0.226E+01  0.262E+00
  19.517  0.223E+01  0.261E+00
  19.527  0.219E+01  0.258E+00
  19.537  0.215E+01  0.254E+00
  19.547  0.210E+01  0.249E+00
  19.557  0.206E+01  0.242E+00
  19.567  0.203E+01  0.235E+00
  19.577  0.199E+01  0.228E+00
  19.587  0.197E+01  0.220E+00
  19.597  0.194E+01  0.212E+00
  19.607  0.193E+01  0.204E+00
  19.617  0.191E+01  0.196E+00
  19.627  0.190E+01  0.188E+00
  19.637  0.190E+01  0.181E+00
  19.647  0.189E+01  0.174E+00
  19.657  0.189E+01  0.167E+00
  19.667  0.189E+01  0.162E+00
  19.677  0.189E+01  0.156E+00
  19.687  0.189E+01  0.152E+00
  19.697  0.188E+01  0.148E+00
  19.707  0.188E+01  0.144E+00
  19.717  0.186E+01  0.141E+00
  19.727  0.185E+01  0.138E+00
  19.737  0.183E+01  0.136E+00
  19.747  0.180E+01  0.134E+00
  19.757  0.178E+01  0.132E+00
  19.767  0.175E+01  0.131E+00
  19.777  0.171E+01  0.130E+00
  19.787  0.168E+01  0.130E+00
  19.797  0.164E+01  0.129E+00
  19.807  0.160E+01  0.129E+00
  19.817  0.156E+01  0.129E+00
  19.827  0.153E+01  0.129E+00
  19.837  0.149E+01  0.130E+00
  19.847  0.146E+01  0.130E+00
  19.857  0.143E+01  0.131E+00
  19.867  0.141E+01  0.132E+00
  19.877  0.139E+01  0.132E+00
  19.887  0.137E+01  0.133E+00
  19.897  0.135E+01  0.135E+00
  19.907  0.134E+01  0.136E+00
  19.917  0.134E+01  0.137E+00
  19.927  0.133E+01  0.138E+00
  19.937  0.133E+01  0.140E+00
  19.947  0.134E+01  0.141E+00
  19.957  0.134E+01  0.143E+00
  19.967  0.134E+01  0.144E+00
  19.977  0.135E+01  0.146E+00
  19.987  0.135E+01  0.147E+00
  19.997  0.136E+01  0.148E+00
  20.007  0.136E+01  0.148E+00
  20.017  0.136E+01  0.149E+00
  20.027  0.135E+01  0.148E+00
  20.037  0.135E+01  0.148E+00
  20.047  0.134E+01  0.146E+00
  20.057  0.132E+01  0.144E+00
  20.067  0.131E+01  0.142E+00
  20.077  0.129E+01  0.138E+00
  20.087  0.126E+01  0.134E+00
  20.097  0.124E+01  0.129E+00
  20.107  0.121E+01  0.124E+00
  20.117  0.118E+01  0.119E+00
  20.127  0.115E+01  0.113E+00
  20.137  0.112E+01  0.106E+00
  20.147  0.110E+01  0.998E-01
  20.157  0.107E+01  0.933E-01
  20.167  0.105E+01  0.869E-01
  20.177  0.102E+01  0.806E-01
  20.187  0.100E+01  0.746E-01
  20.197  0.986E+00  0.690E-01
  20.207  0.971E+00  0.638E-01
  20.217  0.957E+00  0.590E-01
  20.227  0.945E+00  0.549E-01
  20.237  0.934E+00  0.512E-01
  20.247  0.923E+00  0.482E-01
  20.257  0.912E+00  0.457E-01
  20.267  0.902E+00  0.437E-01
  20.277  0.890E+00  0.423E-01
  20.287  0.877E+00  0.414E-01
  20.297  0.863E+00  0.409E-01
  20.307  0.848E+00  0.407E-01
  20.317  0.831E+00  0.410E-01
  20.327  0.813E+00  0.415E-01
  20.337  0.794E+00  0.422E-01
  20.347  0.773E+00  0.430E-01
  20.357  0.753E+00  0.439E-01
  20.367  0.732E+00  0.449E-01
  20.377  0.711E+00  0.458E-01
  20.387  0.691E+00  0.467E-01
  20.397  0.672E+00  0.474E-01
  20.407  0.654E+00  0.480E-01
  20.417  0.637E+00  0.484E-01
  20.427  0.622E+00  0.487E-01
  20.437  0.609E+00  0.487E-01
  20.447  0.598E+00  0.485E-01
  20.457  0.589E+00  0.482E-01
  20.467  0.583E+00  0.478E-01
  20.477  0.579E+00  0.473E-01
  20.487  0.578E+00  0.467E-01
  20.497  0.579E+00  0.462E-01
  20.507  0.582E+00  0.457E-01
  20.517  0.588E+00  0.454E-01
  20.527  0.597E+00  0.453E-01
  20.537  0.608E+00  0.454E-01
  20.547  0.621E+00  0.457E-01
  20.557  0.637E+00  0.464E-01
  20.567  0.654E+00  0.474E-01
  20.577  0.674E+00  0.487E-01
  20.587  0.694E+00  0.502E-01
  20.597  0.716E+00  0.521E-01
  20.607  0.739E+00  0.542E-01
  20.617  0.762E+00  0.564E-01
  20.627  0.785E+00  0.588E-01
  20.637  0.807E+00  0.613E-01
  20.647  0.829E+00  0.638E-01
  20.657  0.850E+00  0.662E-01
  20.667  0.870E+00  0.684E-01
  20.677  0.889E+00  0.705E-01
  20.687  0.906E+00  0.724E-01
  20.697  0.922E+00  0.741E-01
  20.707  0.938E+00  0.754E-01
  20.717  0.953E+00  0.765E-01
  20.727  0.968E+00  0.772E-01
  20.737  0.983E+00  0.777E-01
  20.747  0.999E+00  0.779E-01
  20.757  0.102E+01  0.778E-01
  20.767  0.103E+01  0.776E-01
  20.777  0.105E+01  0.771E-01
  20.787  0.108E+01  0.766E-01
  20.797  0.110E+01  0.759E-01
  20.807  0.113E+01  0.753E-01
  20.817  0.116E+01  0.747E-01
  20.827  0.119E+01  0.741E-01
  20.837  0.122E+01  0.736E-01
  20.847  0.125E+01  0.733E-01
  20.857  0.129E+01  0.730E-01
  20.867  0.132E+01  0.729E-01
  20.877  0.135E+01  0.729E-01
  20.887  0.138E+01  0.730E-01
  20.897  0.141E+01  0.732E-01
  20.907  0.144E+01  0.735E-01
  20.917  0.146E+01  0.738E-01
  20.927  0.148E+01  0.742E-01
  20.937  0.150E+01  0.745E-01
  20.947  0.151E+01  0.748E-01
  20.957  0.153E+01  0.750E-01
  20.967  0.154E+01  0.752E-01
  20.977  0.155E+01  0.754E-01
  20.987  0.156E+01  0.756E-01
  20.997  0.157E+01  0.757E-01
  21.007  0.158E+01  0.759E-01
  21.017  0.159E+01  0.762E-01
  21.027  0.160E+01  0.766E-01
  21.037  0.162E+01  0.771E-01
  21.047  0.164E+01  0.778E-01
  21.057  0.167E+01  0.788E-01
  21.067  0.170E+01  0.799E-01
  21.077  0.173E+01  0.813E-01
  21.087  0.176E+01  0.829E-01
  21.097  0.179E+01  0.847E-01
  21.107  0.183E+01  0.866E-01
  21.117  0.186E+01  0.886E-01
  21.127  0.189E+01  0.906E-01
  21.137  0.191E+01  0.925E-01
  21.147  0.193E+01  0.943E-01
  21.157  0.195E+01  0.959E-01
  21.167  0.196E+01  0.971E-01
  21.177  0.196E+01  0.980E-01
  21.187  0.196E+01  0.985E-01
  21.197  0.195E+01  0.984E-01
  21.207  0.193E+01  0.979E-01
  21.217  0.191E+01  0.969E-01
  21.227  0.189E+01  0.955E-01
  21.237  0.186E+01  0.936E-01
  21.247  0.183E+01  0.914E-01
  21.257  0.180E+01  0.888E-01
  21.267  0.178E+01  0.860E-01
  21.277  0.175E+01  0.831E-01
  21.287  0.172E+01  0.801E-01
  21.297  0.170E+01  0.770E-01
  21.307  0.168E+01  0.741E-01
  21.317  0.166E+01  0.712E-01
  21.327  0.164E+01  0.684E-01
  21.337  0.162E+01  0.659E-01
  21.347  0.160E+01  0.634E-01
  21.357  0.158E+01  0.611E-01
  21.367  0.156E+01  0.590E-01
  21.377  0.154E+01  0.570E-01
  21.387  0.151E+01  0.550E-01
  21.397  0.147E+01  0.531E-01
  21.407  0.143E+01  0.512E-01
  21.417  0.139E+01  0.493E-01
  21.427  0.133E+01  0.474E-01
  21.437  0.128E+01  0.455E-01
  21.447  0.121E+01  0.435E-01
  21.457  0.115E+01  0.416E-01
  21.467  0.108E+01  0.397E-01
  21.477  0.100E+01  0.379E-01
  21.487  0.934E+00  0.362E-01
  21.497  0.864E+00  0.348E-01
  21.507  0.797E+00  0.335E-01
  21.517  0.735E+00  0.326E-01
  21.527  0.679E+00  0.320E-01
  21.537  0.629E+00  0.318E-01
  21.547  0.588E+00  0.321E-01
  21.557  0.556E+00  0.328E-01
  21.567  0.533E+00  0.340E-01
  21.577  0.520E+00  0.356E-01
  21.587  0.517E+00  0.377E-01
  21.597  0.523E+00  0.401E-01
  21.607  0.538E+00  0.428E-01
  21.617  0.562E+00  0.458E-01
  21.627  0.593E+00  0.490E-01
  21.637  0.631E+00  0.522E-01
  21.647  0.674E+00  0.554E-01
  21.657  0.722E+00  0.585E-01
  21.667  0.773E+00  0.614E-01
  21.677  0.825E+00  0.640E-01
  21.687  0.879E+00  0.663E-01
  21.697  0.932E+00  0.682E-01
  21.707  0.984E+00  0.698E-01
  21.717  0.103E+01  0.709E-01
  21.727  0.108E+01  0.717E-01
  21.737  0.113E+01  0.721E-01
  21.747  0.117E+01  0.723E-01
  21.757  0.120E+01  0.722E-01
  21.767  0.123E+01  0.720E-01
  21.777  0.126E+01  0.718E-01
  21.787  0.128E+01  0.715E-01
  21.797  0.130E+01  0.713E-01
  21.807  0.131E+01  0.713E-01
  21.817  0.132E+01  0.713E-01
  21.827  0.132E+01  0.716E-01
  21.837  0.132E+01  0.720E-01
  21.847  0.132E+01  0.726E-01
  21.857  0.131E+01  0.733E-01
  21.867  0.130E+01  0.740E-01
  21.877  0.128E+01  0.748E-01
  21.887  0.126E+01  0.755E-01
  21.897  0.123E+01  0.761E-01
  21.907  0.120E+01  0.765E-01
  21.917  0.117E+01  0.766E-01
  21.927  0.114E+01  0.764E-01
  21.937  0.110E+01  0.759E-01
  21.947  0.106E+01  0.751E-01
  21.957  0.102E+01  0.739E-01
  21.967  0.984E+00  0.724E-01
  21.977  0.946E+00  0.707E-01
  21.987  0.910E+00  0.687E-01
  21.997  0.876E+00  0.665E-01
  22.007  0.846E+00  0.641E-01
  22.017  0.820E+00  0.617E-01
  22.027  0.799E+00  0.593E-01
  22.037  0.782E+00  0.570E-01
  22.047  0.770E+00  0.547E-01
  22.057  0.762E+00  0.526E-01
  22.067  0.760E+00  0.505E-01
  22.077  0.761E+00  0.487E-01
  22.087  0.766E+00  0.470E-01
  22.097  0.774E+00  0.454E-01
  22.107  0.785E+00  0.440E-01
  22.117  0.797E+00  0.427E-01
  22.127  0.809E+00  0.415E-01
  22.137  0.822E+00  0.404E-01
  22.147  0.835E+00  0.394E-01
  22.157  0.847E+00  0.384E-01
  22.167  0.859E+00  0.376E-01
  22.177  0.870E+00  0.368E-01
  22.187  0.881E+00  0.362E-01
  22.197  0.892E+00  0.357E-01
  22.207  0.904E+00  0.354E-01
  22.217  0.918E+00  0.354E-01
  22.227  0.933E+00  0.355E-01
  22.237  0.952E+00  0.360E-01
  22.247  0.974E+00  0.368E-01
  22.257  0.100E+01  0.380E-01
  22.267  0.103E+01  0.396E-01
  22.277  0.107E+01  0.415E-01
  22.287  0.111E+01  0.439E-01
  22.297  0.116E+01  0.466E-01
  22.307  0.121E+01  0.497E-01
  22.317  0.126E+01  0.531E-01
  22.327  0.132E+01  0.568E-01
  22.337  0.138E+01  0.606E-01
  22.347  0.144E+01  0.646E-01
  22.357  0.149E+01  0.686E-01
  22.367  0.155E+01  0.726E-01
  22.377  0.160E+01  0.765E-01
  22.387  0.164E+01  0.800E-01
  22.397  0.168E+01  0.833E-01
  22.407  0.170E+01  0.862E-01
  22.417  0.172E+01  0.886E-01
  22.427  0.173E+01  0.904E-01
  22.437  0.173E+01  0.917E-01
  22.447  0.172E+01  0.924E-01
  22.457  0.170E+01  0.925E-01
  22.467  0.167E+01  0.920E-01
  22.477  0.164E+01  0.909E-01
  22.487  0.159E+01  0.893E-01
  22.497  0.155E+01  0.873E-01
  22.507  0.149E+01  0.848E-01
  22.517  0.144E+01  0.819E-01
  22.527  0.138E+01  0.788E-01
  22.537  0.133E+01  0.756E-01
  22.547  0.127E+01  0.722E-01
  22.557  0.122E+01  0.687E-01
  22.567  0.117E+01  0.653E-01
  22.577  0.113E+01  0.620E-01
  22.587  0.109E+01  0.588E-01
  22.597  0.106E+01  0.559E-01
  22.607  0.103E+01  0.532E-01
  22.617  0.101E+01  0.508E-01
  22.627  0.997E+00  0.487E-01
  22.637  0.989E+00  0.469E-01
  22.647  0.988E+00  0.455E-01
  22.657  0.993E+00  0.444E-01
  22.667  0.100E+01  0.437E-01
  22.677  0.102E+01  0.432E-01
  22.687  0.104E+01  0.431E-01
  22.697  0.107E+01  0.433E-01
  22.707  0.110E+01  0.438E-01
  22.717  0.113E+01  0.445E-01
  22.727  0.116E+01  0.454E-01
  22.737  0.120E+01  0.464E-01
  22.747  0.124E+01  0.477E-01
  22.757  0.127E+01  0.490E-01
  22.767  0.131E+01  0.504E-01
  22.777  0.134E+01  0.520E-01
  22.787  0.137E+01  0.536E-01
  22.797  0.140E+01  0.552E-01
  22.807  0.143E+01  0.570E-01
  22.817  0.146E+01  0.588E-01
  22.827  0.148E+01  0.606E-01
  22.837  0.150E+01  0.626E-01
  22.847  0.152E+01  0.647E-01
  22.857  0.153E+01  0.668E-01
  22.867  0.155E+01  0.691E-01
  22.877  0.156E+01  0.715E-01
  22.887  0.157E+01  0.739E-01
  22.897  0.158E+01  0.763E-01
  22.907  0.158E+01  0.788E-01
  22.917  0.159E+01  0.812E-01
  22.927  0.160E+01  0.834E-01
  22.937  0.160E+01  0.855E-01
  22.947  0.160E+01  0.874E-01
  22.957  0.160E+01  0.889E-01
  22.967  0.160E+01  0.901E-01
  22.977  0.159E+01  0.909E-01
  22.987  0.158E+01  0.912E-01
  22.997  0.157E+01  0.910E-01
  23.007  0.156E+01  0.903E-01
  23.017  0.154E+01  0.892E-01
  23.027  0.152E+01  0.875E-01
  23.037  0.150E+01  0.855E-01
  23.047  0.148E+01  0.831E-01
  23.057  0.145E+01  0.805E-01
  23.067  0.143E+01  0.776E-01
  23.077  0.141E+01  0.746E-01
  23.087  0.138E+01  0.716E-01
  23.097  0.137E+01  0.687E-01
  23.107  0.135E+01  0.660E-01
  23.117  0.134E+01  0.635E-01
  23.127  0.134E+01  0.614E-01
  23.137  0.134E+01  0.595E-01
  23.147  0.134E+01  0.581E-01
  23.157  0.135E+01  0.571E-01
  23.167  0.136E+01  0.564E-01
  23.177  0.138E+01  0.562E-01
  23.187  0.140E+01  0.562E-01
  23.197  0.142E+01  0.566E-01
  23.207  0.144E+01  0.573E-01
  23.217  0.146E+01  0.582E-01
  23.227  0.148E+01  0.592E-01
  23.237  0.150E+01  0.603E-01
  23.247  0.151E+01  0.615E-01
  23.257  0.152E+01  0.628E-01
  23.267  0.153E+01  0.640E-01
  23.277  0.153E+01  0.652E-01
  23.287  0.153E+01  0.665E-01
  23.297  0.153E+01  0.677E-01
  23.307  0.152E+01  0.690E-01
  23.317  0.152E+01  0.703E-01
  23.327  0.151E+01  0.717E-01
  23.337  0.151E+01  0.732E-01
  23.347  0.150E+01  0.747E-01
  23.357  0.150E+01  0.764E-01
  23.367  0.151E+01  0.782E-01
  23.377  0.151E+01  0.801E-01
  23.387  0.152E+01  0.820E-01
  23.397  0.154E+01  0.840E-01
  23.407  0.155E+01  0.859E-01
  23.417  0.157E+01  0.876E-01
  23.427  0.159E+01  0.892E-01
  23.437  0.160E+01  0.906E-01
  23.447  0.162E+01  0.916E-01
  23.457  0.163E+01  0.922E-01
  23.467  0.164E+01  0.923E-01
  23.477  0.164E+01  0.919E-01
  23.487  0.163E+01  0.909E-01
  23.497  0.162E+01  0.894E-01
  23.507  0.160E+01  0.874E-01
  23.517  0.157E+01  0.848E-01
  23.527  0.154E+01  0.817E-01
  23.537  0.150E+01  0.783E-01
  23.547  0.145E+01  0.745E-01
  23.557  0.140E+01  0.705E-01
  23.567  0.134E+01  0.664E-01
  23.577  0.129E+01  0.623E-01
  23.587  0.123E+01  0.583E-01
  23.597  0.118E+01  0.544E-01
  23.607  0.113E+01  0.508E-01
  23.617  0.109E+01  0.475E-01
  23.627  0.105E+01  0.445E-01
  23.637  0.102E+01  0.420E-01
  23.647  0.992E+00  0.399E-01
  23.657  0.973E+00  0.382E-01
  23.667  0.960E+00  0.369E-01
  23.677  0.952E+00  0.360E-01
  23.687  0.949E+00  0.354E-01
  23.697  0.949E+00  0.352E-01
  23.707  0.953E+00  0.352E-01
  23.717  0.959E+00  0.354E-01
  23.727  0.965E+00  0.359E-01
  23.737  0.972E+00  0.365E-01
  23.747  0.980E+00  0.372E-01
  23.757  0.987E+00  0.381E-01
  23.767  0.993E+00  0.390E-01
  23.777  0.100E+01  0.402E-01
  23.787  0.101E+01  0.415E-01
  23.797  0.101E+01  0.429E-01
  23.807  0.102E+01  0.446E-01
  23.817  0.104E+01  0.464E-01
  23.827  0.105E+01  0.485E-01
  23.837  0.107E+01  0.508E-01
  23.847  0.109E+01  0.533E-01
  23.857  0.111E+01  0.561E-01
  23.867  0.114E+01  0.590E-01
  23.877  0.117E+01  0.621E-01
  23.887  0.120E+01  0.653E-01
  23.897  0.124E+01  0.686E-01
  23.907  0.128E+01  0.719E-01
  23.917  0.132E+01  0.752E-01
  23.927  0.137E+01  0.783E-01
  23.937  0.141E+01  0.813E-01
  23.947  0.145E+01  0.840E-01
  23.957  0.150E+01  0.863E-01
  23.967  0.154E+01  0.884E-01
  23.977  0.158E+01  0.900E-01
  23.987  0.161E+01  0.912E-01
  23.997  0.164E+01  0.919E-01
  24.007  0.167E+01  0.922E-01
  24.017  0.169E+01  0.919E-01
  24.027  0.171E+01  0.913E-01
  24.037  0.172E+01  0.901E-01
  24.047  0.173E+01  0.886E-01
  24.057  0.173E+01  0.867E-01
  24.067  0.172E+01  0.844E-01
  24.077  0.171E+01  0.818E-01
  24.087  0.168E+01  0.789E-01
  24.097  0.166E+01  0.759E-01
  24.107  0.163E+01  0.727E-01
  24.117  0.159E+01  0.694E-01
  24.127  0.154E+01  0.661E-01
  24.137  0.150E+01  0.629E-01
  24.147  0.144E+01  0.597E-01
  24.157  0.139E+01  0.566E-01
  24.167  0.133E+01  0.537E-01
  24.177  0.128E+01  0.510E-01
  24.187  0.122E+01  0.486E-01
  24.197  0.116E+01  0.463E-01
  24.207  0.110E+01  0.444E-01
  24.217  0.105E+01  0.427E-01
  24.227  0.992E+00  0.412E-01
  24.237  0.942E+00  0.400E-01
  24.247  0.896E+00  0.391E-01
  24.257  0.855E+00  0.385E-01
  24.267  0.818E+00  0.380E-01
  24.277  0.786E+00  0.379E-01
  24.287  0.760E+00  0.379E-01
  24.297  0.741E+00  0.382E-01
  24.307  0.727E+00  0.388E-01
  24.317  0.719E+00  0.395E-01
  24.327  0.718E+00  0.404E-01
  24.337  0.722E+00  0.415E-01
  24.347  0.732E+00  0.428E-01
  24.357  0.747E+00  0.442E-01
  24.367  0.766E+00  0.458E-01
  24.377  0.790E+00  0.474E-01
  24.387  0.817E+00  0.491E-01
  24.397  0.847E+00  0.508E-01
  24.407  0.878E+00  0.524E-01
  24.417  0.912E+00  0.540E-01
  24.427  0.946E+00  0.555E-01
  24.437  0.980E+00  0.568E-01
  24.447  0.101E+01  0.580E-01
  24.457  0.105E+01  0.590E-01
  24.467  0.108E+01  0.598E-01
  24.477  0.112E+01  0.604E-01
  24.487  0.115E+01  0.608E-01
  24.497  0.119E+01  0.611E-01
  24.507  0.122E+01  0.612E-01
  24.517  0.126E+01  0.612E-01
  24.527  0.130E+01  0.611E-01
  24.537  0.134E+01  0.609E-01
  24.547  0.138E+01  0.608E-01
  24.557  0.142E+01  0.607E-01
  24.567  0.146E+01  0.606E-01
  24.577  0.150E+01  0.606E-01
  24.587  0.155E+01  0.608E-01
  24.597  0.159E+01  0.610E-01
  24.607  0.164E+01  0.614E-01
  24.617  0.168E+01  0.619E-01
  24.627  0.172E+01  0.626E-01
  24.637  0.176E+01  0.634E-01
  24.647  0.180E+01  0.643E-01
  24.657  0.184E+01  0.652E-01
  24.667  0.187E+01  0.663E-01
  24.677  0.190E+01  0.673E-01
  24.687  0.192E+01  0.684E-01
  24.697  0.194E+01  0.694E-01
  24.707  0.196E+01  0.705E-01
  24.717  0.197E+01  0.714E-01
  24.727  0.199E+01  0.722E-01
  24.737  0.200E+01  0.730E-01
  24.747  0.201E+01  0.736E-01
  24.757  0.201E+01  0.740E-01
  24.767  0.202E+01  0.743E-01
  24.777  0.203E+01  0.744E-01
  24.787  0.204E+01  0.743E-01
  24.797  0.205E+01  0.741E-01
  24.807  0.206E+01  0.736E-01
  24.817  0.208E+01  0.730E-01
  24.827  0.209E+01  0.723E-01
  24.837  0.211E+01  0.714E-01
  24.847  0.213E+01  0.704E-01
  24.857  0.215E+01  0.692E-01
  24.867  0.217E+01  0.680E-01
  24.877  0.218E+01  0.667E-01
  24.887  0.220E+01  0.653E-01
  24.897  0.221E+01  0.640E-01
  24.907  0.222E+01  0.625E-01
  24.917  0.222E+01  0.611E-01
  24.927  0.222E+01  0.596E-01
  24.937  0.221E+01  0.581E-01
  24.947  0.219E+01  0.566E-01
  24.957  0.216E+01  0.550E-01
  24.967  0.212E+01  0.535E-01
  24.977  0.207E+01  0.519E-01
  24.987  0.201E+01  0.503E-01
  24.997  0.195E+01  0.487E-01
  25.007  0.187E+01  0.471E-01
  25.017  0.179E+01  0.454E-01
  25.027  0.171E+01  0.439E-01
  25.037  0.162E+01  0.424E-01
  25.047  0.154E+01  0.410E-01
  25.057  0.145E+01  0.397E-01
  25.067  0.137E+01  0.386E-01
  25.077  0.130E+01  0.376E-01
  25.087  0.123E+01  0.369E-01
  25.097  0.117E+01  0.364E-01
  25.107  0.112E+01  0.362E-01
  25.117  0.108E+01  0.363E-01
  25.127  0.105E+01  0.366E-01
  25.137  0.103E+01  0.373E-01
  25.147  0.102E+01  0.381E-01
  25.157  0.102E+01  0.392E-01
  25.167  0.102E+01  0.405E-01
  25.177  0.104E+01  0.419E-01
  25.187  0.107E+01  0.434E-01
  25.197  0.109E+01  0.449E-01
  25.207  0.113E+01  0.464E-01
  25.217  0.116E+01  0.479E-01
  25.227  0.120E+01  0.493E-01
  25.237  0.124E+01  0.505E-01
  25.247  0.127E+01  0.515E-01
  25.257  0.130E+01  0.524E-01
  25.267  0.133E+01  0.530E-01
  25.277  0.135E+01  0.534E-01
  25.287  0.137E+01  0.535E-01
  25.297  0.138E+01  0.535E-01
  25.307  0.138E+01  0.531E-01
  25.317  0.138E+01  0.526E-01
  25.327  0.137E+01  0.519E-01
  25.337  0.135E+01  0.509E-01
  25.347  0.133E+01  0.498E-01
  25.357  0.131E+01  0.485E-01
  25.367  0.127E+01  0.471E-01
  25.377  0.124E+01  0.455E-01
  25.387  0.120E+01  0.439E-01
  25.397  0.116E+01  0.421E-01
  25.407  0.111E+01  0.402E-01
  25.417  0.106E+01  0.382E-01
  25.427  0.101E+01  0.362E-01
  25.437  0.967E+00  0.342E-01
  25.447  0.920E+00  0.321E-01
  25.457  0.875E+00  0.300E-01
  25.467  0.833E+00  0.280E-01
  25.477  0.795E+00  0.260E-01
  25.487  0.761E+00  0.241E-01
  25.497  0.732E+00  0.223E-01
  25.507  0.708E+00  0.206E-01
  25.517  0.689E+00  0.191E-01
  25.527  0.677E+00  0.176E-01
  25.537  0.670E+00  0.164E-01
  25.547  0.669E+00  0.153E-01
  25.557  0.674E+00  0.143E-01
  25.567  0.684E+00  0.136E-01
  25.577  0.698E+00  0.130E-01
  25.587  0.717E+00  0.125E-01
  25.597  0.740E+00  0.122E-01
  25.607  0.765E+00  0.121E-01
  25.617  0.792E+00  0.121E-01
  25.627  0.821E+00  0.123E-01
  25.637  0.850E+00  0.126E-01
  25.647  0.879E+00  0.130E-01
  25.657  0.907E+00  0.136E-01
  25.667  0.935E+00  0.142E-01
  25.677  0.960E+00  0.150E-01
  25.687  0.983E+00  0.159E-01
  25.697  0.100E+01  0.169E-01
  25.707  0.102E+01  0.180E-01
  25.717  0.104E+01  0.192E-01
  25.727  0.105E+01  0.205E-01
  25.737  0.106E+01  0.219E-01
  25.747  0.107E+01  0.234E-01
  25.757  0.108E+01  0.250E-01
  25.767  0.109E+01  0.268E-01
  25.777  0.109E+01  0.286E-01
  25.787  0.110E+01  0.306E-01
  25.797  0.111E+01  0.327E-01
  25.807  0.112E+01  0.348E-01
  25.817  0.113E+01  0.371E-01
  25.827  0.115E+01  0.394E-01
  25.837  0.117E+01  0.417E-01
  25.847  0.119E+01  0.440E-01
  25.857  0.122E+01  0.463E-01
  25.867  0.125E+01  0.485E-01
  25.877  0.129E+01  0.506E-01
  25.887  0.132E+01  0.526E-01
  25.897  0.137E+01  0.544E-01
  25.907  0.141E+01  0.561E-01
  25.917  0.146E+01  0.575E-01
  25.927  0.151E+01  0.586E-01
  25.937  0.156E+01  0.595E-01
  25.947  0.160E+01  0.602E-01
  25.957  0.165E+01  0.606E-01
  25.967  0.169E+01  0.608E-01
  25.977  0.173E+01  0.608E-01
  25.987  0.177E+01  0.606E-01
  25.997  0.180E+01  0.602E-01
  26.007  0.183E+01  0.596E-01
  26.017  0.185E+01  0.589E-01
  26.027  0.187E+01  0.581E-01
  26.037  0.187E+01  0.572E-01
  26.047  0.188E+01  0.562E-01
  26.057  0.188E+01  0.552E-01
  26.067  0.187E+01  0.541E-01
  26.077  0.186E+01  0.530E-01
  26.087  0.185E+01  0.518E-01
  26.097  0.183E+01  0.507E-01
  26.107  0.181E+01  0.496E-01
  26.117  0.179E+01  0.484E-01
  26.127  0.177E+01  0.474E-01
  26.137  0.174E+01  0.463E-01
  26.147  0.172E+01  0.453E-01
  26.157  0.170E+01  0.443E-01
  26.167  0.168E+01  0.434E-01
  26.177  0.166E+01  0.426E-01
  26.187  0.165E+01  0.418E-01
  26.197  0.164E+01  0.410E-01
  26.207  0.163E+01  0.403E-01
  26.217  0.162E+01  0.396E-01
  26.227  0.161E+01  0.390E-01
  26.237  0.161E+01  0.384E-01
  26.247  0.161E+01  0.378E-01
  26.257  0.161E+01  0.373E-01
  26.267  0.161E+01  0.367E-01
  26.277  0.161E+01  0.361E-01
  26.287  0.161E+01  0.355E-01
  26.297  0.161E+01  0.349E-01
  26.307  0.162E+01  0.342E-01
  26.317  0.162E+01  0.336E-01
  26.327  0.163E+01  0.330E-01
  26.337  0.163E+01  0.323E-01
  26.347  0.164E+01  0.317E-01
  26.357  0.164E+01  0.310E-01
  26.367  0.165E+01  0.304E-01
  26.377  0.166E+01  0.299E-01
  26.387  0.166E+01  0.293E-01
  26.397  0.167E+01  0.288E-01
  26.407  0.167E+01  0.284E-01
  26.417  0.167E+01  0.280E-01
  26.427  0.168E+01  0.276E-01
  26.437  0.168E+01  0.273E-01
  26.447  0.168E+01  0.270E-01
  26.457  0.168E+01  0.268E-01
  26.467  0.167E+01  0.266E-01
  26.477  0.167E+01  0.264E-01
  26.487  0.166E+01  0.263E-01
  26.497  0.165E+01  0.262E-01
  26.507  0.163E+01  0.261E-01
  26.517  0.162E+01  0.261E-01
  26.527  0.160E+01  0.262E-01
  26.537  0.158E+01  0.263E-01
  26.547  0.155E+01  0.266E-01
  26.557  0.153E+01  0.269E-01
  26.567  0.150E+01  0.274E-01
  26.577  0.147E+01  0.280E-01
  26.587  0.145E+01  0.288E-01
  26.597  0.142E+01  0.297E-01
  26.607  0.140E+01  0.308E-01
  26.617  0.137E+01  0.321E-01
  26.627  0.135E+01  0.335E-01
  26.637  0.133E+01  0.350E-01
  26.647  0.132E+01  0.367E-01
  26.657  0.131E+01  0.384E-01
  26.667  0.130E+01  0.402E-01
  26.677  0.130E+01  0.421E-01
  26.687  0.130E+01  0.440E-01
  26.697  0.131E+01  0.458E-01
  26.707  0.132E+01  0.476E-01
  26.717  0.133E+01  0.492E-01
  26.727  0.134E+01  0.507E-01
  26.737  0.136E+01  0.521E-01
  26.747  0.137E+01  0.532E-01
  26.757  0.139E+01  0.541E-01
  26.767  0.140E+01  0.547E-01
  26.777  0.142E+01  0.550E-01
  26.787  0.143E+01  0.551E-01
  26.797  0.143E+01  0.549E-01
  26.807  0.144E+01  0.544E-01
  26.817  0.143E+01  0.535E-01
  26.827  0.143E+01  0.525E-01
  26.837  0.142E+01  0.511E-01
  26.847  0.140E+01  0.496E-01
  26.857  0.138E+01  0.478E-01
  26.867  0.135E+01  0.459E-01
  26.877  0.133E+01  0.439E-01
  26.887  0.130E+01  0.417E-01
  26.897  0.126E+01  0.395E-01
  26.907  0.123E+01  0.374E-01
  26.917  0.120E+01  0.352E-01
  26.927  0.117E+01  0.331E-01
  26.937  0.114E+01  0.311E-01
  26.947  0.112E+01  0.293E-01
  26.957  0.109E+01  0.276E-01
  26.967  0.108E+01  0.261E-01
  26.977  0.106E+01  0.248E-01
  26.987  0.106E+01  0.237E-01
  26.997  0.106E+01  0.228E-01
  27.007  0.106E+01  0.222E-01
  27.017  0.107E+01  0.219E-01
  27.027  0.108E+01  0.218E-01
  27.037  0.110E+01  0.219E-01
  27.047  0.112E+01  0.223E-01
  27.057  0.114E+01  0.229E-01
  27.067  0.116E+01  0.237E-01
  27.077  0.119E+01  0.248E-01
  27.087  0.122E+01  0.260E-01
  27.097  0.125E+01  0.274E-01
  27.107  0.127E+01  0.290E-01
  27.117  0.130E+01  0.308E-01
  27.127  0.133E+01  0.326E-01
  27.137  0.136E+01  0.346E-01
  27.147  0.138E+01  0.366E-01
  27.157  0.141E+01  0.387E-01
  27.167  0.143E+01  0.408E-01
  27.177  0.145E+01  0.428E-01
  27.187  0.147E+01  0.448E-01
  27.197  0.148E+01  0.466E-01
  27.207  0.149E+01  0.483E-01
  27.217  0.150E+01  0.499E-01
  27.227  0.151E+01  0.511E-01
  27.237  0.151E+01  0.522E-01
  27.247  0.150E+01  0.529E-01
  27.257  0.149E+01  0.533E-01
  27.267  0.148E+01  0.535E-01
  27.277  0.147E+01  0.532E-01
  27.287  0.145E+01  0.527E-01
  27.297  0.142E+01  0.519E-01
  27.307  0.140E+01  0.508E-01
  27.317  0.137E+01  0.495E-01
  27.327  0.135E+01  0.479E-01
  27.337  0.132E+01  0.463E-01
  27.347  0.130E+01  0.445E-01
  27.357  0.128E+01  0.427E-01
  27.367  0.126E+01  0.409E-01
  27.377  0.125E+01  0.391E-01
  27.387  0.124E+01  0.375E-01
  27.397  0.124E+01  0.359E-01
  27.407  0.124E+01  0.346E-01
  27.417  0.126E+01  0.334E-01
  27.427  0.128E+01  0.325E-01
  27.437  0.130E+01  0.317E-01
  27.447  0.133E+01  0.311E-01
  27.457  0.137E+01  0.308E-01
  27.467  0.142E+01  0.306E-01
  27.477  0.147E+01  0.306E-01
  27.487  0.152E+01  0.307E-01
  27.497  0.158E+01  0.309E-01
  27.507  0.164E+01  0.312E-01
  27.517  0.170E+01  0.316E-01
  27.527  0.176E+01  0.321E-01
  27.537  0.183E+01  0.327E-01
  27.547  0.189E+01  0.332E-01
  27.557  0.196E+01  0.339E-01
  27.567  0.203E+01  0.345E-01
  27.577  0.209E+01  0.353E-01
  27.587  0.216E+01  0.360E-01
  27.597  0.222E+01  0.368E-01
  27.607  0.229E+01  0.377E-01
  27.617  0.235E+01  0.386E-01
  27.627  0.240E+01  0.395E-01
  27.637  0.246E+01  0.405E-01
  27.647  0.251E+01  0.415E-01
  27.657  0.256E+01  0.425E-01
  27.667  0.260E+01  0.435E-01
  27.677  0.263E+01  0.445E-01
  27.687  0.266E+01  0.454E-01
  27.697  0.267E+01  0.462E-01
  27.707  0.268E+01  0.470E-01
  27.717  0.268E+01  0.476E-01
  27.727  0.267E+01  0.480E-01
  27.737  0.264E+01  0.483E-01
  27.747  0.261E+01  0.483E-01
  27.757  0.256E+01  0.481E-01
  27.767  0.250E+01  0.477E-01
  27.777  0.244E+01  0.470E-01
  27.787  0.236E+01  0.461E-01
  27.797  0.228E+01  0.449E-01
  27.807  0.219E+01  0.434E-01
  27.817  0.210E+01  0.418E-01
  27.827  0.200E+01  0.399E-01
  27.837  0.189E+01  0.378E-01
  27.847  0.179E+01  0.356E-01
  27.857  0.169E+01  0.333E-01
  27.867  0.158E+01  0.309E-01
  27.877  0.148E+01  0.285E-01
  27.887  0.139E+01  0.261E-01
  27.897  0.130E+01  0.237E-01
  27.907  0.121E+01  0.214E-01
  27.917  0.113E+01  0.192E-01
  27.927  0.106E+01  0.171E-01
  27.937  0.995E+00  0.152E-01
  27.947  0.939E+00  0.135E-01
  27.957  0.890E+00  0.119E-01
  27.967  0.850E+00  0.105E-01
  27.977  0.817E+00  0.934E-02
  27.987  0.792E+00  0.835E-02
  27.997  0.774E+00  0.753E-02
  28.007  0.763E+00  0.690E-02
  28.017  0.758E+00  0.644E-02
  28.027  0.758E+00  0.614E-02
  28.037  0.764E+00  0.599E-02
  28.047  0.774E+00  0.597E-02
  28.057  0.788E+00  0.609E-02
  28.067  0.806E+00  0.633E-02
  28.077  0.826E+00  0.667E-02
  28.087  0.850E+00  0.711E-02
  28.097  0.875E+00  0.764E-02
  28.107  0.903E+00  0.823E-02
  28.117  0.931E+00  0.888E-02
  28.127  0.961E+00  0.958E-02
  28.137  0.990E+00  0.103E-01
  28.147  0.102E+01  0.111E-01
  28.157  0.105E+01  0.118E-01
  28.167  0.108E+01  0.125E-01
  28.177  0.110E+01  0.132E-01
  28.187  0.113E+01  0.138E-01
  28.197  0.115E+01  0.144E-01
  28.207  0.117E+01  0.149E-01
  28.217  0.118E+01  0.153E-01
  28.227  0.119E+01  0.156E-01
  28.237  0.120E+01  0.159E-01
  28.247  0.121E+01  0.160E-01
  28.257  0.122E+01  0.160E-01
  28.267  0.122E+01  0.159E-01
  28.277  0.122E+01  0.157E-01
  28.287  0.121E+01  0.155E-01
  28.297  0.121E+01  0.152E-01
  28.307  0.120E+01  0.148E-01
  28.317  0.120E+01  0.144E-01
  28.327  0.119E+01  0.140E-01
  28.337  0.118E+01  0.135E-01
  28.347  0.117E+01  0.131E-01
  28.357  0.116E+01  0.126E-01
  28.367  0.114E+01  0.122E-01
  28.377  0.113E+01  0.118E-01
  28.387  0.112E+01  0.115E-01
  28.397  0.110E+01  0.111E-01
  28.407  0.109E+01  0.108E-01
  28.417  0.107E+01  0.106E-01
  28.427  0.105E+01  0.104E-01
  28.437  0.104E+01  0.102E-01
  28.447  0.101E+01  0.998E-02
  28.457  0.991E+00  0.983E-02
  28.467  0.967E+00  0.971E-02
  28.477  0.942E+00  0.961E-02
  28.487  0.915E+00  0.953E-02
  28.497  0.888E+00  0.947E-02
  28.507  0.861E+00  0.944E-02
  28.517  0.833E+00  0.944E-02
  28.527  0.807E+00  0.947E-02
  28.537  0.782E+00  0.954E-02
  28.547  0.759E+00  0.964E-02
  28.557  0.740E+00  0.978E-02
  28.567  0.723E+00  0.997E-02
  28.577  0.711E+00  0.102E-01
  28.587  0.704E+00  0.105E-01
  28.597  0.702E+00  0.108E-01
  28.607  0.705E+00  0.112E-01
  28.617  0.714E+00  0.116E-01
  28.627  0.730E+00  0.120E-01
  28.637  0.752E+00  0.125E-01
  28.647  0.780E+00  0.131E-01
  28.657  0.814E+00  0.137E-01
  28.667  0.854E+00  0.143E-01
  28.677  0.901E+00  0.149E-01
  28.687  0.953E+00  0.156E-01
  28.697  0.101E+01  0.164E-01
  28.707  0.107E+01  0.172E-01
  28.717  0.114E+01  0.180E-01
  28.727  0.120E+01  0.189E-01
  28.737  0.127E+01  0.198E-01
  28.747  0.134E+01  0.207E-01
  28.757  0.142E+01  0.216E-01
  28.767  0.149E+01  0.226E-01
  28.777  0.155E+01  0.235E-01
  28.787  0.162E+01  0.244E-01
  28.797  0.167E+01  0.253E-01
  28.807  0.173E+01  0.261E-01
  28.817  0.177E+01  0.269E-01
  28.827  0.181E+01  0.275E-01
  28.837  0.184E+01  0.281E-01
  28.847  0.187E+01  0.285E-01
  28.857  0.188E+01  0.288E-01
  28.867  0.189E+01  0.290E-01
  28.877  0.188E+01  0.291E-01
  28.887  0.188E+01  0.290E-01
  28.897  0.186E+01  0.288E-01
  28.907  0.184E+01  0.285E-01
  28.917  0.181E+01  0.281E-01
  28.927  0.179E+01  0.276E-01
  28.937  0.175E+01  0.270E-01
  28.947  0.172E+01  0.263E-01
  28.957  0.169E+01  0.256E-01
  28.967  0.166E+01  0.249E-01
  28.977  0.162E+01  0.241E-01
  28.987  0.159E+01  0.233E-01
  28.997  0.157E+01  0.225E-01
  29.007  0.154E+01  0.217E-01
  29.017  0.152E+01  0.209E-01
  29.027  0.150E+01  0.202E-01
  29.037  0.148E+01  0.194E-01
  29.047  0.147E+01  0.187E-01
  29.057  0.146E+01  0.180E-01
  29.067  0.145E+01  0.174E-01
  29.077  0.144E+01  0.168E-01
  29.087  0.143E+01  0.162E-01
  29.097  0.143E+01  0.156E-01
  29.107  0.143E+01  0.151E-01
  29.117  0.142E+01  0.146E-01
  29.127  0.142E+01  0.141E-01
  29.137  0.142E+01  0.137E-01
  29.147  0.142E+01  0.133E-01
  29.157  0.141E+01  0.130E-01
  29.167  0.141E+01  0.127E-01
  29.177  0.142E+01  0.125E-01
  29.187  0.142E+01  0.124E-01
  29.197  0.142E+01  0.123E-01
  29.207  0.143E+01  0.123E-01
  29.217  0.144E+01  0.124E-01
  29.227  0.146E+01  0.126E-01
  29.237  0.147E+01  0.129E-01
  29.247  0.150E+01  0.133E-01
  29.257  0.153E+01  0.138E-01
  29.267  0.156E+01  0.144E-01
  29.277  0.160E+01  0.150E-01
  29.287  0.164E+01  0.158E-01
  29.297  0.168E+01  0.165E-01
  29.307  0.173E+01  0.173E-01
  29.317  0.177E+01  0.181E-01
  29.327  0.182E+01  0.189E-01
  29.337  0.186E+01  0.197E-01
  29.347  0.189E+01  0.204E-01
  29.357  0.192E+01  0.211E-01
  29.367  0.194E+01  0.216E-01
  29.377  0.196E+01  0.220E-01
  29.387  0.196E+01  0.223E-01
  29.397  0.195E+01  0.225E-01
  29.407  0.194E+01  0.225E-01
  29.417  0.191E+01  0.224E-01
  29.427  0.187E+01  0.221E-01
  29.437  0.182E+01  0.217E-01
  29.447  0.177E+01  0.212E-01
  29.457  0.171E+01  0.206E-01
  29.467  0.165E+01  0.199E-01
  29.477  0.158E+01  0.192E-01
  29.487  0.152E+01  0.184E-01
  29.497  0.146E+01  0.176E-01
  29.507  0.140E+01  0.168E-01
  29.517  0.134E+01  0.160E-01
  29.527  0.129E+01  0.152E-01
  29.537  0.125E+01  0.145E-01
  29.547  0.121E+01  0.139E-01
  29.557  0.118E+01  0.133E-01
  29.567  0.117E+01  0.128E-01
  29.577  0.115E+01  0.123E-01
  29.587  0.115E+01  0.119E-01
  29.597  0.115E+01  0.116E-01
  29.607  0.116E+01  0.114E-01
  29.617  0.117E+01  0.112E-01
  29.627  0.119E+01  0.111E-01
  29.637  0.121E+01  0.110E-01
  29.647  0.123E+01  0.109E-01
  29.657  0.125E+01  0.109E-01
  29.667  0.128E+01  0.108E-01
  29.677  0.129E+01  0.108E-01
  29.687  0.131E+01  0.108E-01
  29.697  0.132E+01  0.107E-01
  29.707  0.133E+01  0.106E-01
  29.717  0.133E+01  0.105E-01
  29.727  0.132E+01  0.103E-01
  29.737  0.131E+01  0.101E-01
  29.747  0.129E+01  0.986E-02
  29.757  0.127E+01  0.957E-02
  29.767  0.123E+01  0.923E-02
  29.777  0.120E+01  0.885E-02
  29.787  0.116E+01  0.844E-02
  29.797  0.111E+01  0.799E-02
  29.807  0.106E+01  0.752E-02
  29.817  0.101E+01  0.703E-02
  29.827  0.956E+00  0.654E-02
  29.837  0.903E+00  0.604E-02
  29.847  0.851E+00  0.556E-02
  29.857  0.802E+00  0.509E-02
  29.867  0.755E+00  0.464E-02
  29.877  0.713E+00  0.423E-02
  29.887  0.676E+00  0.385E-02
  29.897  0.645E+00  0.351E-02
  29.907  0.620E+00  0.322E-02
  29.917  0.603E+00  0.297E-02
  29.927  0.594E+00  0.278E-02
  29.937  0.593E+00  0.263E-02
  29.947  0.599E+00  0.254E-02
  29.957  0.614E+00  0.249E-02
  29.967  0.637E+00  0.250E-02
  29.977  0.667E+00  0.255E-02
  29.987  0.705E+00  0.265E-02
  29.997  0.749E+00  0.279E-02
  30.007  0.799E+00  0.298E-02
  30.017  0.855E+00  0.320E-02
  30.027  0.916E+00  0.346E-02
  30.037  0.981E+00  0.376E-02
  30.047  0.105E+01  0.409E-02
  30.057  0.112E+01  0.444E-02
  30.067  0.120E+01  0.482E-02
  30.077  0.127E+01  0.522E-02
  30.087  0.135E+01  0.563E-02
  30.097  0.143E+01  0.605E-02
  30.107  0.151E+01  0.648E-02
  30.117  0.159E+01  0.690E-02
  30.127  0.166E+01  0.732E-02
  30.137  0.174E+01  0.772E-02
  30.147  0.181E+01  0.810E-02
  30.157  0.188E+01  0.846E-02
  30.167  0.195E+01  0.879E-02
  30.177  0.202E+01  0.908E-02
  30.187  0.207E+01  0.934E-02
  30.197  0.213E+01  0.955E-02
  30.207  0.218E+01  0.973E-02
  30.217  0.222E+01  0.986E-02
  30.227  0.225E+01  0.995E-02
  30.237  0.228E+01  0.999E-02
  30.247  0.231E+01  0.999E-02
  30.257  0.232E+01  0.995E-02
  30.267  0.233E+01  0.987E-02
  30.277  0.233E+01  0.976E-02
  30.287  0.232E+01  0.960E-02
  30.297  0.230E+01  0.942E-02
  30.307  0.227E+01  0.920E-02
  30.317  0.224E+01  0.896E-02
  30.327  0.220E+01  0.868E-02
  30.337  0.216E+01  0.838E-02
  30.347  0.211E+01  0.805E-02
  30.357  0.205E+01  0.770E-02
  30.367  0.199E+01  0.733E-02
  30.377  0.193E+01  0.694E-02
  30.387  0.186E+01  0.654E-02
  30.397  0.180E+01  0.613E-02
  30.407  0.173E+01  0.571E-02
  30.417  0.167E+01  0.528E-02
  30.427  0.161E+01  0.486E-02
  30.437  0.155E+01  0.444E-02
  30.447  0.150E+01  0.404E-02
  30.457  0.144E+01  0.364E-02
  30.467  0.139E+01  0.327E-02
  30.477  0.135E+01  0.291E-02
  30.487  0.130E+01  0.259E-02
  30.497  0.126E+01  0.229E-02
  30.507  0.122E+01  0.201E-02
  30.517  0.119E+01  0.177E-02
  30.527  0.115E+01  0.156E-02
  30.537  0.111E+01  0.138E-02
  30.547  0.107E+01  0.123E-02
  30.557  0.103E+01  0.111E-02
  30.567  0.991E+00  0.101E-02
  30.577  0.948E+00  0.940E-03
  30.587  0.903E+00  0.887E-03
  30.597  0.857E+00  0.851E-03
  30.607  0.810E+00  0.830E-03
  30.617  0.763E+00  0.819E-03
  30.627  0.715E+00  0.817E-03
  30.637  0.667E+00  0.819E-03
  30.647  0.619E+00  0.823E-03
  30.657  0.573E+00  0.827E-03
  30.667  0.528E+00  0.829E-03
  30.677  0.484E+00  0.827E-03
  30.687  0.442E+00  0.820E-03
  30.697  0.402E+00  0.807E-03
  30.707  0.365E+00  0.787E-03
  30.717  0.329E+00  0.761E-03
  30.727  0.296E+00  0.729E-03
  30.737  0.264E+00  0.691E-03
  30.747  0.235E+00  0.649E-03
  30.757  0.208E+00  0.603E-03
  30.767  0.184E+00  0.555E-03
  30.777  0.161E+00  0.505E-03
  30.787  0.140E+00  0.455E-03
  30.797  0.121E+00  0.405E-03
  30.807  0.104E+00  0.357E-03
  30.817  0.889E-01  0.312E-03
  30.827  0.755E-01  0.269E-03
  30.837  0.638E-01  0.230E-03
  30.847  0.538E-01  0.195E-03
  30.857  0.454E-01  0.164E-03
  30.867  0.385E-01  0.136E-03
  30.877  0.330E-01  0.113E-03
  30.887  0.289E-01  0.932E-04
  30.897  0.262E-01  0.771E-04
  30.907  0.248E-01  0.643E-04
  30.917  0.246E-01  0.545E-04
  30.927  0.257E-01  0.475E-04
  30.937  0.279E-01  0.430E-04
  30.947  0.314E-01  0.407E-04
  30.957  0.361E-01  0.406E-04
  30.967  0.420E-01  0.422E-04
  30.977  0.491E-01  0.454E-04
  30.987  0.572E-01  0.501E-04
  30.997  0.664E-01  0.561E-04
  31.007  0.765E-01  0.631E-04
  31.017  0.873E-01  0.711E-04
  31.027  0.988E-01  0.797E-04
  31.037  0.111E+00  0.888E-04
  31.047  0.123E+00  0.981E-04
  31.057  0.135E+00  0.107E-03
  31.067  0.146E+00  0.117E-03
  31.077  0.157E+00  0.125E-03
  31.087  0.167E+00  0.133E-03
  31.097  0.176E+00  0.140E-03
  31.107  0.183E+00  0.145E-03
  31.117  0.188E+00  0.150E-03
  31.127  0.192E+00  0.152E-03
  31.137  0.193E+00  0.154E-03
  31.147  0.192E+00  0.153E-03
  31.157  0.190E+00  0.151E-03
  31.167  0.185E+00  0.148E-03
  31.177  0.179E+00  0.143E-03
  31.187  0.171E+00  0.137E-03
  31.197  0.162E+00  0.130E-03
  31.207  0.151E+00  0.123E-03
  31.217  0.141E+00  0.115E-03
  31.227  0.130E+00  0.108E-03
  31.237  0.119E+00  0.100E-03
  31.247  0.108E+00  0.937E-04
  31.257  0.978E-01  0.883E-04
  31.267  0.887E-01  0.842E-04
  31.277  0.808E-01  0.818E-04
  31.287  0.743E-01  0.813E-04
  31.297  0.693E-01  0.831E-04
  31.307  0.661E-01  0.872E-04
  31.317  0.645E-01  0.940E-04
  31.327  0.648E-01  0.103E-03
  31.337  0.668E-01  0.115E-03
  31.347  0.706E-01  0.130E-03
  31.357  0.760E-01  0.148E-03
  31.367  0.829E-01  0.168E-03
  31.377  0.912E-01  0.190E-03
  31.387  0.101E+00  0.213E-03
  31.397  0.111E+00  0.238E-03
  31.407  0.122E+00  0.264E-03
  31.417  0.133E+00  0.290E-03
  31.427  0.144E+00  0.316E-03
  31.437  0.154E+00  0.340E-03
  31.447  0.164E+00  0.363E-03
  31.457  0.173E+00  0.383E-03
  31.467  0.181E+00  0.400E-03
  31.477  0.187E+00  0.413E-03
  31.487  0.191E+00  0.422E-03
  31.497  0.193E+00  0.427E-03
  31.507  0.193E+00  0.428E-03
  31.517  0.191E+00  0.423E-03
  31.527  0.187E+00  0.414E-03
  31.537  0.181E+00  0.401E-03
  31.547  0.173E+00  0.385E-03
  31.557  0.164E+00  0.365E-03
  31.567  0.154E+00  0.342E-03
  31.577  0.143E+00  0.317E-03
  31.587  0.131E+00  0.291E-03
  31.597  0.119E+00  0.264E-03
  31.607  0.107E+00  0.238E-03
  31.617  0.951E-01  0.211E-03
  31.627  0.836E-01  0.186E-03
  31.637  0.727E-01  0.161E-03
  31.647  0.626E-01  0.139E-03
  31.657  0.532E-01  0.118E-03
  31.667  0.448E-01  0.994E-04
  31.677  0.373E-01  0.828E-04
  31.687  0.307E-01  0.682E-04
  31.697  0.251E-01  0.556E-04
  31.707  0.202E-01  0.448E-04
  31.717  0.161E-01  0.357E-04
  31.727  0.127E-01  0.282E-04
  31.737  0.992E-02  0.220E-04
  31.747  0.766E-02  0.170E-04
  31.757  0.585E-02  0.130E-04
  31.767  0.442E-02  0.981E-05
  31.777  0.330E-02  0.733E-05
  31.787  0.244E-02  0.542E-05
  31.797  0.179E-02  0.397E-05
  31.807  0.129E-02  0.287E-05
  31.817  0.926E-03  0.205E-05
  31.827  0.656E-03  0.145E-05
  31.837  0.459E-03  0.102E-05
  31.847  0.318E-03  0.706E-06
  31.857  0.218E-03  0.484E-06
  31.867  0.148E-03  0.328E-06
  31.877  0.993E-04  0.220E-06
  31.887  0.659E-04  0.146E-06
  31.897  0.433E-04  0.960E-07
  31.907  0.281E-04  0.624E-07
  31.917  0.181E-04  0.401E-07
